 Eloss (eV)   Int (a.u.)
   0.000000 59736.893321
   0.001600 59729.493251
   0.003201 59706.821282
   0.004801 59668.895661
   0.006401 59615.746651
   0.008002 59547.416490
   0.009602 59463.959333
   0.011202 59365.441182
   0.012803 59251.939801
   0.014403 59123.544611
   0.016003 58980.356578
   0.017604 58822.488074
   0.019204 58650.062735
   0.020804 58463.215298
   0.022404 58262.091425
   0.024005 58046.847515
   0.025605 57817.650499
   0.027205 57574.677627
   0.028806 57318.116235
   0.030406 57048.163509
   0.032006 56765.026227
   0.033607 56468.920499
   0.035207 56160.071487
   0.036807 55838.713125
   0.038408 55505.087819
   0.040008 55159.446141
   0.041608 54802.046520
   0.043209 54433.154916
   0.044809 54053.044488
   0.046409 53661.995263
   0.048010 53260.293784
   0.049610 52848.232770
   0.051210 52426.110750
   0.052811 51994.231711
   0.054411 51552.904730
   0.056011 51102.443608
   0.057612 50643.166496
   0.059212 50175.395527
   0.060812 49699.456437
   0.062412 49215.678189
   0.064013 48724.392598
   0.065613 48225.933957
   0.067213 47720.638655
   0.068814 47208.844807
   0.070414 46690.891882
   0.072014 46167.120329
   0.073615 45637.871212
   0.075215 45103.485847
   0.076815 44564.305440
   0.078416 44020.670734
   0.080016 43472.921659
   0.081616 42921.396985
   0.083217 42366.433985
   0.084817 41808.368103
   0.086417 41247.532631
   0.088018 40684.258388
   0.089618 40118.873410
   0.091218 39551.702651
   0.092819 38983.067688
   0.094419 38413.286437
   0.096019 37842.672876
   0.097620 37271.536781
   0.099220 36700.183469
   0.100820 36128.913550
   0.102420 35558.022694
   0.104021 34987.801404
   0.105621 34418.534800
   0.107221 33850.502414
   0.108822 33283.978000
   0.110422 32719.229346
   0.112022 32156.518108
   0.113623 31596.099645
   0.115223 31038.222873
   0.116823 30483.130127
   0.118424 29931.057031
   0.120024 29382.232387
   0.121624 28836.878067
   0.123225 28295.208922
   0.124825 27757.432701
   0.126425 27223.749977
   0.128026 26694.354087
   0.129626 26169.431086
   0.131226 25649.159704
   0.132827 25133.711319
   0.134427 24623.249941
   0.136027 24117.932200
   0.137628 23617.907350
   0.139228 23123.317279
   0.140828 22634.296531
   0.142428 22150.972337
   0.144029 21673.464648
   0.145629 21201.886190
   0.147229 20736.342514
   0.148830 20276.932063
   0.150430 19823.746240
   0.152030 19376.869492
   0.153631 18936.379393
   0.155231 18502.346735
   0.156831 18074.835634
   0.158432 17653.903629
   0.160032 17239.601797
   0.161632 16831.974871
   0.163233 16431.061359
   0.164833 16036.893677
   0.166433 15649.498274
   0.168034 15268.895774
   0.169634 14895.101112
   0.171234 14528.123682
   0.172835 14167.967481
   0.174435 13814.631257
   0.176035 13468.108667
   0.177636 13128.388427
   0.179236 12795.454474
   0.180836 12469.286117
   0.182436 12149.858204
   0.184037 11837.141281
   0.185637 11531.101753
   0.187237 11231.702046
   0.188838 10938.900772
   0.190438 10652.652890
   0.192038 10372.909871
   0.193639 10099.619855
   0.195239  9832.727819
   0.196839  9572.175732
   0.198440  9317.902718
   0.200040  9069.845211
   0.201640  8827.937114
   0.203241  8592.109951
   0.204841  8362.293021
   0.206441  8138.413549
   0.208042  7920.396833
   0.209642  7708.166389
   0.211242  7501.644096
   0.212843  7300.750337
   0.214443  7105.404134
   0.216043  6915.523282
   0.217644  6731.024486
   0.219244  6551.823482
   0.220844  6377.835168
   0.222444  6208.973723
   0.224045  6045.152725
   0.225645  5886.285268
   0.227245  5732.284070
   0.228846  5583.061585
   0.230446  5438.530103
   0.232046  5298.601855
   0.233647  5163.189104
   0.235247  5032.204246
   0.236847  4905.559892
   0.238448  4783.168957
   0.240048  4664.944746
   0.241648  4550.801026
   0.243249  4440.652104
   0.244849  4334.412899
   0.246449  4231.999011
   0.248050  4133.326782
   0.249650  4038.313356
   0.251250  3946.876743
   0.252851  3858.935865
   0.254451  3774.410613
   0.256051  3693.221887
   0.257652  3615.291650
   0.259252  3540.542960
   0.260852  3468.900011
   0.262452  3400.288170
   0.264053  3334.634005
   0.265653  3271.865317
   0.267253  3211.911164
   0.268854  3154.701887
   0.270454  3100.169129
   0.272054  3048.245852
   0.273655  2998.866357
   0.275255  2951.966293
   0.276855  2907.482671
   0.278456  2865.353871
   0.280056  2825.519651
   0.281656  2787.921150
   0.283257  2752.500890
   0.284857  2719.202779
   0.286457  2687.972110
   0.288058  2658.755557
   0.289658  2631.501169
   0.291258  2606.158371
   0.292859  2582.677947
   0.294459  2561.012040
   0.296059  2541.114138
   0.297660  2522.939062
   0.299260  2506.442955
   0.300860  2491.583269
   0.302460  2478.318751
   0.304061  2466.609423
   0.305661  2456.416573
   0.307261  2447.702732
   0.308862  2440.431657
   0.310462  2434.568316
   0.312062  2430.078865
   0.313663  2426.930629
   0.315263  2425.092084
   0.316863  2424.532834
   0.318464  2425.223589
   0.320064  2427.136146
   0.321664  2430.243369
   0.323265  2434.519160
   0.324865  2439.938443
   0.326465  2446.477140
   0.328066  2454.112148
   0.329666  2462.821317
   0.331266  2472.583425
   0.332867  2483.378160
   0.334467  2495.186094
   0.336067  2507.988658
   0.337668  2521.768128
   0.339268  2536.507592
   0.340868  2552.190937
   0.342468  2568.802819
   0.344069  2586.328649
   0.345669  2604.754565
   0.347269  2624.067411
   0.348870  2644.254722
   0.350470  2665.304693
   0.352070  2687.206169
   0.353671  2709.948615
   0.355271  2733.522102
   0.356871  2757.917286
   0.358472  2783.125386
   0.360072  2809.138169
   0.361672  2835.947925
   0.363273  2863.547455
   0.364873  2891.930051
   0.366473  2921.089473
   0.368074  2951.019940
   0.369674  2981.716105
   0.371274  3013.173046
   0.372875  3045.386242
   0.374475  3078.351561
   0.376075  3112.065245
   0.377676  3146.523893
   0.379276  3181.724446
   0.380876  3217.664173
   0.382476  3254.340658
   0.384077  3291.751782
   0.385677  3329.895715
   0.387277  3368.770899
   0.388878  3408.376036
   0.390478  3448.710076
   0.392078  3489.772204
   0.393679  3531.561829
   0.395279  3574.078572
   0.396879  3617.322255
   0.398480  3661.292889
   0.400080  3705.990665
   0.401680  3751.415943
   0.403281  3797.569242
   0.404881  3844.451228
   0.406481  3892.062709
   0.408082  3940.404624
   0.409682  3989.478029
   0.411282  4039.284098
   0.412883  4089.824105
   0.414483  4141.099424
   0.416083  4193.111512
   0.417684  4245.861911
   0.419284  4299.352234
   0.420884  4353.584157
   0.422484  4408.559419
   0.424085  4464.279806
   0.425685  4520.747152
   0.427285  4577.963326
   0.428886  4635.930233
   0.430486  4694.649799
   0.432086  4754.123973
   0.433687  4814.354718
   0.435287  4875.344003
   0.436887  4937.093801
   0.438488  4999.606083
   0.440088  5062.882813
   0.441688  5126.925939
   0.443289  5191.737395
   0.444889  5257.319090
   0.446489  5323.672909
   0.448090  5390.800701
   0.449690  5458.704283
   0.451290  5527.385429
   0.452891  5596.845872
   0.454491  5667.087293
   0.456091  5738.111322
   0.457692  5809.919533
   0.459292  5882.513441
   0.460892  5955.894495
   0.462492  6030.064080
   0.464093  6105.023507
   0.465693  6180.774016
   0.467293  6257.316769
   0.468894  6334.652846
   0.470494  6412.783247
   0.472094  6491.708883
   0.473695  6571.430576
   0.475295  6651.949056
   0.476895  6733.264959
   0.478496  6815.378823
   0.480096  6898.291085
   0.481696  6982.002079
   0.483297  7066.512037
   0.484897  7151.821079
   0.486497  7237.929220
   0.488098  7324.836358
   0.489698  7412.542281
   0.491298  7501.046659
   0.492899  7590.349044
   0.494499  7680.448869
   0.496099  7771.345443
   0.497700  7863.037954
   0.499300  7955.525463
   0.500900  8048.806906
   0.502501  8142.881088
   0.504101  8237.746688
   0.505701  8333.402250
   0.507301  8429.846189
   0.508902  8527.076786
   0.510502  8625.092186
   0.512102  8723.890401
   0.513703  8823.469305
   0.515303  8923.826637
   0.516903  9024.959997
   0.518504  9126.866847
   0.520104  9229.544511
   0.521704  9332.990174
   0.523305  9437.200882
   0.524905  9542.173542
   0.526505  9647.904922
   0.528106  9754.391649
   0.529706  9861.630215
   0.531306  9969.616970
   0.532907 10078.348129
   0.534507 10187.819769
   0.536107 10298.027829
   0.537708 10408.968114
   0.539308 10520.636297
   0.540908 10633.027913
   0.542509 10746.138369
   0.544109 10859.962942
   0.545709 10974.496779
   0.547309 11089.734901
   0.548910 11205.672205
   0.550510 11322.303467
   0.552110 11439.623341
   0.553711 11557.626366
   0.555311 11676.306966
   0.556911 11795.659454
   0.558512 11915.678035
   0.560112 12036.356811
   0.561712 12157.689780
   0.563313 12279.670846
   0.564913 12402.293819
   0.566513 12525.552421
   0.568114 12649.440289
   0.569714 12773.950981
   0.571314 12899.077983
   0.572915 13024.814710
   0.574515 13151.154515
   0.576115 13278.090691
   0.577716 13405.616484
   0.579316 13533.725091
   0.580916 13662.409673
   0.582517 13791.663359
   0.584117 13921.479253
   0.585717 14051.850442
   0.587317 14182.770005
   0.588918 14314.231019
   0.590518 14446.226569
   0.592118 14578.749755
   0.593719 14711.793702
   0.595319 14845.351571
   0.596919 14979.416564
   0.598520 15113.981938
   0.600120 15249.041014
   0.601720 15384.587186
   0.603321 15520.613934
   0.604921 15657.114834
   0.606521 15794.083569
   0.608122 15931.513944
   0.609722 16069.399891
   0.611322 16207.735490
   0.612923 16346.514975
   0.614523 16485.732752
   0.616123 16625.383407
   0.617724 16765.461725
   0.619324 16905.962699
   0.620924 17046.881550
   0.622525 17188.213735
   0.624125 17329.954966
   0.625725 17472.101226
   0.627325 17614.648778
   0.628926 17757.594188
   0.630526 17900.934338
   0.632126 18044.666440
   0.633727 18188.788055
   0.635327 18333.297107
   0.636927 18478.191903
   0.638528 18623.471147
   0.640128 18769.133959
   0.641728 18915.179890
   0.643329 19061.608941
   0.644929 19208.421580
   0.646529 19355.618759
   0.648130 19503.201932
   0.649730 19651.173073
   0.651330 19799.534695
   0.652931 19948.289862
   0.654531 20097.442213
   0.656131 20246.995978
   0.657732 20396.955993
   0.659332 20547.327720
   0.660932 20698.117262
   0.662533 20849.331384
   0.664133 21000.977524
   0.665733 21153.063814
   0.667333 21305.599098
   0.668934 21458.592942
   0.670534 21612.055653
   0.672134 21765.998298
   0.673735 21920.432710
   0.675335 22075.371513
   0.676935 22230.828126
   0.678536 22386.816785
   0.680136 22543.352549
   0.681736 22700.451317
   0.683337 22858.129835
   0.684937 23016.405711
   0.686537 23175.297424
   0.688138 23334.824329
   0.689738 23495.006673
   0.691338 23655.865594
   0.692939 23817.423133
   0.694539 23979.702239
   0.696139 24142.726769
   0.697740 24306.521498
   0.699340 24471.112113
   0.700940 24636.525222
   0.702541 24802.788347
   0.704141 24969.929928
   0.705741 25137.979312
   0.707341 25306.966758
   0.708942 25476.923424
   0.710542 25647.881362
   0.712142 25819.873509
   0.713743 25992.933677
   0.715343 26167.096540
   0.716943 26342.397618
   0.718544 26518.873265
   0.720144 26696.560651
   0.721744 26875.497739
   0.723345 27055.723269
   0.724945 27237.276733
   0.726545 27420.198349
   0.728146 27604.529035
   0.729746 27790.310380
   0.731346 27977.584617
   0.732947 28166.394585
   0.734547 28356.783696
   0.736147 28548.795900
   0.737748 28742.475645
   0.739348 28937.867836
   0.740948 29135.017791
   0.742549 29333.971200
   0.744149 29534.774074
   0.745749 29737.472696
   0.747349 29942.113572
   0.748950 30148.743379
   0.750550 30357.408904
   0.752150 30568.156992
   0.753751 30781.034488
   0.755351 30996.088170
   0.756951 31213.364690
   0.758552 31432.910509
   0.760152 31654.771831
   0.761752 31878.994532
   0.763353 32105.624093
   0.764953 32334.705524
   0.766553 32566.283296
   0.768154 32800.401263
   0.769754 33037.102585
   0.771354 33276.429654
   0.772955 33518.424012
   0.774555 33763.126270
   0.776155 34010.576033
   0.777756 34260.811809
   0.779356 34513.870936
   0.780956 34769.789489
   0.782557 35028.602203
   0.784157 35290.342383
   0.785757 35555.041822
   0.787357 35822.730715
   0.788958 36093.437573
   0.790558 36367.189136
   0.792158 36644.010292
   0.793759 36923.923985
   0.795359 37206.951137
   0.796959 37493.110562
   0.798560 37782.418878
   0.800160 38074.890433
   0.801760 38370.537217
   0.803361 38669.368783
   0.804961 38971.392172
   0.806561 39276.611830
   0.808162 39585.029540
   0.809762 39896.644340
   0.811362 40211.452458
   0.812963 40529.447240
   0.814563 40850.619085
   0.816163 41174.955375
   0.817764 41502.440424
   0.819364 41833.055407
   0.820964 42166.778315
   0.822565 42503.583895
   0.824165 42843.443604
   0.825765 43186.325565
   0.827365 43532.194523
   0.828966 43881.011804
   0.830566 44232.735289
   0.832166 44587.319376
   0.833767 44944.714957
   0.835367 45304.869398
   0.836967 45667.726520
   0.838568 46033.226588
   0.840168 46401.306303
   0.841768 46771.898795
   0.843369 47144.933634
   0.844969 47520.336827
   0.846569 47898.030837
   0.848170 48277.934596
   0.849770 48659.963529
   0.851370 49044.029581
   0.852971 49430.041250
   0.854571 49817.903625
   0.856171 50207.518428
   0.857772 50598.784064
   0.859372 50991.595674
   0.860972 51385.845196
   0.862573 51781.421426
   0.864173 52178.210092
   0.865773 52576.093924
   0.867373 52974.952738
   0.868974 53374.663521
   0.870574 53775.100516
   0.872174 54176.135325
   0.873775 54577.637001
   0.875375 54979.472157
   0.876975 55381.505076
   0.878576 55783.597820
   0.880176 56185.610349
   0.881776 56587.400646
   0.883377 56988.824840
   0.884977 57389.737335
   0.886577 57789.990945
   0.888178 58189.437029
   0.889778 58587.925631
   0.891378 58985.305625
   0.892979 59381.424854
   0.894579 59776.130286
   0.896179 60169.268158
   0.897780 60560.684131
   0.899380 60950.223441
   0.900980 61337.731060
   0.902581 61723.051847
   0.904181 62106.030706
   0.905781 62486.512750
   0.907381 62864.343451
   0.908982 63239.368807
   0.910582 63611.435495
   0.912182 63980.391030
   0.913783 64346.083926
   0.915383 64708.363848
   0.916983 65067.081770
   0.918584 65422.090128
   0.920184 65773.242968
   0.921784 66120.396101
   0.923385 66463.407248
   0.924985 66802.136181
   0.926585 67136.444868
   0.928186 67466.197612
   0.929786 67791.261180
   0.931386 68111.504937
   0.932987 68426.800975
   0.934587 68737.024231
   0.936187 69042.052606
   0.937788 69341.767080
   0.939388 69636.051819
   0.940988 69924.794277
   0.942589 70207.885295
   0.944189 70485.219192
   0.945789 70756.693855
   0.947389 71022.210813
   0.948990 71281.675319
   0.950590 71534.996415
   0.952190 71782.086993
   0.953791 72022.863855
   0.955391 72257.247760
   0.956991 72485.163469
   0.958592 72706.539779
   0.960192 72921.309557
   0.961792 73129.409760
   0.963393 73330.781454
   0.964993 73525.369827
   0.966593 73713.124187
   0.968194 73893.997963
   0.969794 74067.948698
   0.971394 74234.938028
   0.972995 74394.931665
   0.974595 74547.899368
   0.976195 74693.814907
   0.977796 74832.656026
   0.979396 74964.404393
   0.980996 75089.045553
   0.982597 75206.568868
   0.984197 75316.967455
   0.985797 75420.238121
   0.987397 75516.381287
   0.988998 75605.400913
   0.990598 75687.304416
   0.992198 75762.102584
   0.993799 75829.809488
   0.995399 75890.442385
   0.996999 75944.021624
   0.998600 75990.570545
   1.000200 76030.115375
   1.001800 76062.685126
   1.003401 76088.311480
   1.005001 76107.028686
   1.006601 76118.873445
   1.008202 76123.884798
   1.009802 76122.104008
   1.011402 76113.574451
   1.013003 76098.341496
   1.014603 76076.452387
   1.016203 76047.956135
   1.017804 76012.903393
   1.019404 75971.346349
   1.021004 75923.338606
   1.022605 75868.935074
   1.024205 75808.191855
   1.025805 75741.166136
   1.027405 75667.916080
   1.029006 75588.500724
   1.030606 75502.979870
   1.032206 75411.413991
   1.033807 75313.864133
   1.035407 75210.391820
   1.037007 75101.058963
   1.038608 74985.927777
   1.040208 74865.060693
   1.041808 74738.520283
   1.043409 74606.369185
   1.045009 74468.670029
   1.046609 74325.485377
   1.048210 74176.877652
   1.049810 74022.909092
   1.051410 73863.641686
   1.053011 73699.137137
   1.054611 73529.456809
   1.056211 73354.661697
   1.057812 73174.812388
   1.059412 72989.969034
   1.061012 72800.191331
   1.062613 72605.538494
   1.064213 72406.069247
   1.065813 72201.841815
   1.067413 71992.913913
   1.069014 71779.342750
   1.070614 71561.185034
   1.072214 71338.496974
   1.073815 71111.334300
   1.075415 70879.752276
   1.077015 70643.805719
   1.078616 70403.549026
   1.080216 70159.036201
   1.081816 69910.320887
   1.083417 69657.456397
   1.085017 69400.495757
   1.086617 69139.491741
   1.088218 68874.496919
   1.089818 68605.563699
   1.091418 68332.744374
   1.093019 68056.091174
   1.094619 67775.656317
   1.096219 67491.492059
   1.097820 67203.650750
   1.099420 66912.184890
   1.101020 66617.147182
   1.102621 66318.590588
   1.104221 66016.568388
   1.105821 65711.134234
   1.107421 65402.342208
   1.109022 65090.246875
   1.110622 64774.903341
   1.112222 64456.367304
   1.113823 64134.695109
   1.115423 63809.943798
   1.117023 63482.171162
   1.118624 63151.435786
   1.120224 62817.797097
   1.121824 62481.315407
   1.123425 62142.051954
   1.125025 61800.068942
   1.126625 61455.429579
   1.128226 61108.198102
   1.129826 60758.439819
   1.131426 60406.221127
   1.133027 60051.609539
   1.134627 59694.673704
   1.136227 59335.483425
   1.137828 58974.109671
   1.139428 58610.624585
   1.141028 58245.101496
   1.142629 57877.614912
   1.144229 57508.240528
   1.145829 57137.055214
   1.147429 56764.137005
   1.149030 56389.565096
   1.150630 56013.419814
   1.152230 55635.782607
   1.153831 55256.736012
   1.155431 54876.363630
   1.157031 54494.750097
   1.158632 54111.981041
   1.160232 53728.143050
   1.161832 53343.323627
   1.163433 52957.611141
   1.165033 52571.094783
   1.166633 52183.864513
   1.168234 51796.011000
   1.169834 51407.625573
   1.171434 51018.800150
   1.173035 50629.627183
   1.174635 50240.199590
   1.176235 49850.610686
   1.177836 49460.954115
   1.179436 49071.323778
   1.181036 48681.813758
   1.182637 48292.518250
   1.184237 47903.531480
   1.185837 47514.947630
   1.187437 47126.860761
   1.189038 46739.364732
   1.190638 46352.553122
   1.192238 45966.519152
   1.193839 45581.355601
   1.195439 45197.154733
   1.197039 44814.008208
   1.198640 44432.007012
   1.200240 44051.241376
   1.201840 43671.800694
   1.203441 43293.773453
   1.205041 42917.247153
   1.206641 42542.308233
   1.208242 42169.042003
   1.209842 41797.532566
   1.211442 41427.862755
   1.213043 41060.114061
   1.214643 40694.366571
   1.216243 40330.698905
   1.217844 39969.188152
   1.219444 39609.909816
   1.221044 39252.937757
   1.222645 38898.344141
   1.224245 38546.199388
   1.225845 38196.572124
   1.227445 37849.529140
   1.229046 37505.135346
   1.230646 37163.453737
   1.232246 36824.545353
   1.233847 36488.469252
   1.235447 36155.282477
   1.237047 35825.040034
   1.238648 35497.794863
   1.240248 35173.597827
   1.241848 34852.497690
   1.243449 34534.541105
   1.245049 34219.772606
   1.246649 33908.234600
   1.248250 33599.967362
   1.249850 33295.009039
   1.251450 32993.395647
   1.253051 32695.161082
   1.254651 32400.337123
   1.256251 32108.953447
   1.257852 31821.037642
   1.259452 31536.615224
   1.261052 31255.709653
   1.262653 30978.342360
   1.264253 30704.532768
   1.265853 30434.298317
   1.267453 30167.654497
   1.269054 29904.614873
   1.270654 29645.191122
   1.272254 29389.393066
   1.273855 29137.228708
   1.275455 28888.704268
   1.277055 28643.824228
   1.278656 28402.591363
   1.280256 28165.006794
   1.281856 27931.070022
   1.283457 27700.778975
   1.285057 27474.130055
   1.286657 27251.118180
   1.288258 27031.736835
   1.289858 26815.978111
   1.291458 26603.832761
   1.293059 26395.290239
   1.294659 26190.338756
   1.296259 25988.965320
   1.297860 25791.155787
   1.299460 25596.894910
   1.301060 25406.166382
   1.302661 25218.952888
   1.304261 25035.236143
   1.305861 24854.996949
   1.307461 24678.215230
   1.309062 24504.870082
   1.310662 24334.939815
   1.312262 24168.401995
   1.313863 24005.233488
   1.315463 23845.410498
   1.317063 23688.908609
   1.318664 23535.702823
   1.320264 23385.767596
   1.321864 23239.076878
   1.323465 23095.604142
   1.325065 22955.322426
   1.326665 22818.204357
   1.328266 22684.222186
   1.329866 22553.347822
   1.331466 22425.552851
   1.333067 22300.808571
   1.334667 22179.086015
   1.336267 22060.355975
   1.337868 21944.589023
   1.339468 21831.755538
   1.341068 21721.825722
   1.342669 21614.769616
   1.344269 21510.557128
   1.345869 21409.158036
   1.347469 21310.542013
   1.349070 21214.678636
   1.350670 21121.537401
   1.352270 21031.087730
   1.353871 20943.298986
   1.355471 20858.140480
   1.357071 20775.581479
   1.358672 20695.591213
   1.360272 20618.138880
   1.361872 20543.193654
   1.363473 20470.724686
   1.365073 20400.701108
   1.366673 20333.092038
   1.368274 20267.866579
   1.369874 20204.993822
   1.371474 20144.442845
   1.373075 20086.182716
   1.374675 20030.182487
   1.376275 19976.411201
   1.377876 19924.837882
   1.379476 19875.431539
   1.381076 19828.161164
   1.382677 19782.995726
   1.384277 19739.904171
   1.385877 19698.855421
   1.387477 19659.818367
   1.389078 19622.761871
   1.390678 19587.654758
   1.392278 19554.465818
   1.393879 19523.163802
   1.395479 19493.717417
   1.397079 19466.095327
   1.398680 19440.266148
   1.400280 19416.198448
   1.401880 19393.860743
   1.403481 19373.221500
   1.405081 19354.249131
   1.406681 19336.911992
   1.408282 19321.178388
   1.409882 19307.016568
   1.411482 19294.394726
   1.413083 19283.281004
   1.414683 19273.643491
   1.416283 19265.450226
   1.417884 19258.669198
   1.419484 19253.268353
   1.421084 19249.215591
   1.422685 19246.478774
   1.424285 19245.025730
   1.425885 19244.824254
   1.427485 19245.842117
   1.429086 19248.047068
   1.430686 19251.406842
   1.432286 19255.889167
   1.433887 19261.461769
   1.435487 19268.092380
   1.437087 19275.748746
   1.438688 19284.398636
   1.440288 19294.009847
   1.441888 19304.550218
   1.443489 19315.987636
   1.445089 19328.290045
   1.446689 19341.425461
   1.448290 19355.361976
   1.449890 19370.067771
   1.451490 19385.511131
   1.453091 19401.660448
   1.454691 19418.484240
   1.456291 19435.951159
   1.457892 19454.030002
   1.459492 19472.689725
   1.461092 19491.899454
   1.462693 19511.628498
   1.464293 19531.846360
   1.465893 19552.522749
   1.467493 19573.627595
   1.469094 19595.131056
   1.470694 19617.003538
   1.472294 19639.215700
   1.473895 19661.738470
   1.475495 19684.543055
   1.477095 19707.600956
   1.478696 19730.883977
   1.480296 19754.364237
   1.481896 19778.014181
   1.483497 19801.806595
   1.485097 19825.714613
   1.486697 19849.711726
   1.488298 19873.771800
   1.489898 19897.869079
   1.491498 19921.978197
   1.493099 19946.074191
   1.494699 19970.132504
   1.496299 19994.128999
   1.497900 20018.039966
   1.499500 20041.842128
   1.501100 20065.512653
   1.502701 20089.029158
   1.504301 20112.369716
   1.505901 20135.512865
   1.507502 20158.437612
   1.509102 20181.123438
   1.510702 20203.550307
   1.512302 20225.698665
   1.513903 20247.549450
   1.515503 20269.084093
   1.517103 20290.284520
   1.518704 20311.133158
   1.520304 20331.612936
   1.521904 20351.707286
   1.523505 20371.400149
   1.525105 20390.675968
   1.526705 20409.519697
   1.528306 20427.916796
   1.529906 20445.853233
   1.531506 20463.315481
   1.533107 20480.290521
   1.534707 20496.765836
   1.536307 20512.729411
   1.537908 20528.169731
   1.539508 20543.075777
   1.541108 20557.437023
   1.542709 20571.243435
   1.544309 20584.485461
   1.545909 20597.154034
   1.547510 20609.240561
   1.549110 20620.736921
   1.550710 20631.635461
   1.552310 20641.928985
   1.553911 20651.610753
   1.555511 20660.674473
   1.557111 20669.114294
   1.558712 20676.924799
   1.560312 20684.100999
   1.561912 20690.638322
   1.563513 20696.532610
   1.565113 20701.780108
   1.566713 20706.377458
   1.568314 20710.321688
   1.569914 20713.610205
   1.571514 20716.240787
   1.573115 20718.211574
   1.574715 20719.521056
   1.576315 20720.168068
   1.577916 20720.151779
   1.579516 20719.471683
   1.581116 20718.127587
   1.582717 20716.119605
   1.584317 20713.448149
   1.585917 20710.113916
   1.587518 20706.117877
   1.589118 20701.461276
   1.590718 20696.145608
   1.592318 20690.172622
   1.593919 20683.544299
   1.595519 20676.262852
   1.597119 20668.330713
   1.598720 20659.750519
   1.600320 20650.525111
   1.601920 20640.657516
   1.603521 20630.150944
   1.605121 20619.008776
   1.606721 20607.234552
   1.608322 20594.831968
   1.609922 20581.804862
   1.611522 20568.157206
   1.613123 20553.893099
   1.614723 20539.016755
   1.616323 20523.532499
   1.617924 20507.444754
   1.619524 20490.758036
   1.621124 20473.476943
   1.622725 20455.606152
   1.624325 20437.150403
   1.625925 20418.114502
   1.627526 20398.503302
   1.629126 20378.321707
   1.630726 20357.574655
   1.632326 20336.267119
   1.633927 20314.404096
   1.635527 20291.990601
   1.637127 20269.031662
   1.638728 20245.532312
   1.640328 20221.497588
   1.641928 20196.932516
   1.643529 20171.842117
   1.645129 20146.231393
   1.646729 20120.105325
   1.648330 20093.468869
   1.649930 20066.326952
   1.651530 20038.684465
   1.653131 20010.546260
   1.654731 19981.917147
   1.656331 19952.801889
   1.657932 19923.205200
   1.659532 19893.131740
   1.661132 19862.586113
   1.662733 19831.572864
   1.664333 19800.096478
   1.665933 19768.161371
   1.667534 19735.771899
   1.669134 19702.932343
   1.670734 19669.646920
   1.672334 19635.919771
   1.673935 19601.754965
   1.675535 19567.156496
   1.677135 19532.128283
   1.678736 19496.674169
   1.680336 19460.797919
   1.681936 19424.503221
   1.683537 19387.793685
   1.685137 19350.672844
   1.686737 19313.144150
   1.688338 19275.210981
   1.689938 19236.876637
   1.691538 19198.144338
   1.693139 19159.017232
   1.694739 19119.498389
   1.696339 19079.590806
   1.697940 19039.297406
   1.699540 18998.621042
   1.701140 18957.564493
   1.702741 18916.130473
   1.704341 18874.321627
   1.705941 18832.140533
   1.707542 18789.589706
   1.709142 18746.671603
   1.710742 18703.388615
   1.712342 18659.743081
   1.713943 18615.737282
   1.715543 18571.373448
   1.717143 18526.653757
   1.718744 18481.580341
   1.720344 18436.155286
   1.721944 18390.380635
   1.723545 18344.258393
   1.725145 18297.790526
   1.726745 18250.978968
   1.728346 18203.825622
   1.729946 18156.332360
   1.731546 18108.501033
   1.733147 18060.333467
   1.734747 18011.831470
   1.736347 17962.996834
   1.737948 17913.831338
   1.739548 17864.336753
   1.741148 17814.514840
   1.742749 17764.367361
   1.744349 17713.896074
   1.745949 17663.102742
   1.747550 17611.989135
   1.749150 17560.557029
   1.750750 17508.808217
   1.752350 17456.744503
   1.753951 17404.367712
   1.755551 17351.679690
   1.757151 17298.682310
   1.758752 17245.377469
   1.760352 17191.767097
   1.761952 17137.853157
   1.763553 17083.637650
   1.765153 17029.122614
   1.766753 16974.310130
   1.768354 16919.202325
   1.769954 16863.801372
   1.771554 16808.109496
   1.773155 16752.128973
   1.774755 16695.862136
   1.776355 16639.311373
   1.777956 16582.479136
   1.779556 16525.367936
   1.781156 16467.980350
   1.782757 16410.319021
   1.784357 16352.386663
   1.785957 16294.186057
   1.787558 16235.720060
   1.789158 16176.991602
   1.790758 16118.003689
   1.792358 16058.759406
   1.793959 15999.261915
   1.795559 15939.514462
   1.797159 15879.520374
   1.798760 15819.283059
   1.800360 15758.806014
   1.801960 15698.092819
   1.803561 15637.147141
   1.805161 15575.972735
   1.806761 15514.573446
   1.808362 15452.953205
   1.809962 15391.116035
   1.811562 15329.066050
   1.813163 15266.807452
   1.814763 15204.344537
   1.816363 15141.681691
   1.817964 15078.823390
   1.819564 15015.774204
   1.821164 14952.538792
   1.822765 14889.121907
   1.824365 14825.528391
   1.825965 14761.763176
   1.827566 14697.831286
   1.829166 14633.737833
   1.830766 14569.488020
   1.832366 14505.087136
   1.833967 14440.540560
   1.835567 14375.853754
   1.837167 14311.032269
   1.838768 14246.081740
   1.840368 14181.007883
   1.841968 14115.816499
   1.843569 14050.513468
   1.845169 13985.104751
   1.846769 13919.596385
   1.848370 13853.994485
   1.849970 13788.305240
   1.851570 13722.534912
   1.853171 13656.689836
   1.854771 13590.776413
   1.856371 13524.801115
   1.857972 13458.770477
   1.859572 13392.691100
   1.861172 13326.569644
   1.862773 13260.412830
   1.864373 13194.227436
   1.865973 13128.020293
   1.867574 13061.798288
   1.869174 12995.568354
   1.870774 12929.337474
   1.872374 12863.112676
   1.873975 12796.901032
   1.875575 12730.709651
   1.877175 12664.545683
   1.878776 12598.416310
   1.880376 12532.328750
   1.881976 12466.290246
   1.883577 12400.308072
   1.885177 12334.389525
   1.886777 12268.541923
   1.888378 12202.772601
   1.889978 12137.088914
   1.891578 12071.498227
   1.893179 12006.007917
   1.894779 11940.625365
   1.896379 11875.357961
   1.897980 11810.213093
   1.899580 11745.198151
   1.901180 11680.320519
   1.902781 11615.587574
   1.904381 11551.006683
   1.905981 11486.585201
   1.907582 11422.330469
   1.909182 11358.249806
   1.910782 11294.350513
   1.912382 11230.639865
   1.913983 11167.125112
   1.915583 11103.813472
   1.917183 11040.712133
   1.918784 10977.828247
   1.920384 10915.168927
   1.921984 10852.741246
   1.923585 10790.552235
   1.925185 10728.608877
   1.926785 10666.918109
   1.928386 10605.486814
   1.929986 10544.321823
   1.931586 10483.429912
   1.933187 10422.817795
   1.934787 10362.492129
   1.936387 10302.459503
   1.937988 10242.726443
   1.939588 10183.299407
   1.941188 10124.184781
   1.942789 10065.388879
   1.944389 10006.917940
   1.945989  9948.778127
   1.947590  9890.975522
   1.949190  9833.516127
   1.950790  9776.405861
   1.952390  9719.650558
   1.953991  9663.255964
   1.955591  9607.227737
   1.957191  9551.571444
   1.958792  9496.292561
   1.960392  9441.396469
   1.961992  9386.888453
   1.963593  9332.773701
   1.965193  9279.057305
   1.966793  9225.744254
   1.968394  9172.839436
   1.969994  9120.347637
   1.971594  9068.273540
   1.973195  9016.621722
   1.974795  8965.396652
   1.976395  8914.602694
   1.977996  8864.244103
   1.979596  8814.325024
   1.981196  8764.849493
   1.982797  8715.821435
   1.984397  8667.244661
   1.985997  8619.122871
   1.987598  8571.459653
   1.989198  8524.258479
   1.990798  8477.522709
   1.992398  8431.255585
   1.993999  8385.460237
   1.995599  8340.139678
   1.997199  8295.296805
   1.998800  8250.934400
   2.000400  8207.055127
   2.002000  8163.661535
   2.003601  8120.756056
   2.005201  8078.341007
   2.006801  8036.418585
   2.008402  7994.990875
   2.010002  7954.059843
   2.011602  7913.627339
   2.013203  7873.695099
   2.014803  7834.264742
   2.016403  7795.337773
   2.018004  7756.915582
   2.019604  7718.999445
   2.021204  7681.590523
   2.022805  7644.689866
   2.024405  7608.298411
   2.026005  7572.416982
   2.027606  7537.046292
   2.029206  7502.186945
   2.030806  7467.839433
   2.032406  7434.004142
   2.034007  7400.681348
   2.035607  7367.871221
   2.037207  7335.573824
   2.038808  7303.789114
   2.040408  7272.516948
   2.042008  7241.757074
   2.043609  7211.509143
   2.045209  7181.772703
   2.046809  7152.547201
   2.048410  7123.831989
   2.050010  7095.626317
   2.051610  7067.929344
   2.053211  7040.740130
   2.054811  7014.057643
   2.056411  6987.880760
   2.058012  6962.208265
   2.059612  6937.038854
   2.061212  6912.371135
   2.062813  6888.203627
   2.064413  6864.534767
   2.066013  6841.362905
   2.067614  6818.686312
   2.069214  6796.503176
   2.070814  6774.811605
   2.072414  6753.609631
   2.074015  6732.895209
   2.075615  6712.666219
   2.077215  6692.920467
   2.078816  6673.655690
   2.080416  6654.869551
   2.082016  6636.559648
   2.083617  6618.723511
   2.085217  6601.358604
   2.086817  6584.462326
   2.088418  6568.032018
   2.090018  6552.064957
   2.091618  6536.558361
   2.093219  6521.509394
   2.094819  6506.915160
   2.096419  6492.772712
   2.098020  6479.079049
   2.099620  6465.831120
   2.101220  6453.025824
   2.102821  6440.660013
   2.104421  6428.730493
   2.106021  6417.234024
   2.107622  6406.167326
   2.109222  6395.527074
   2.110822  6385.309906
   2.112422  6375.512422
   2.114023  6366.131182
   2.115623  6357.162715
   2.117223  6348.603515
   2.118824  6340.450042
   2.120424  6332.698727
   2.122024  6325.345974
   2.123625  6318.388155
   2.125225  6311.821620
   2.126825  6305.642692
   2.128426  6299.847672
   2.130026  6294.432838
   2.131626  6289.394448
   2.133227  6284.728742
   2.134827  6280.431942
   2.136427  6276.500252
   2.138028  6272.929864
   2.139628  6269.716954
   2.141228  6266.857687
   2.142829  6264.348217
   2.144429  6262.184687
   2.146029  6260.363234
   2.147630  6258.879986
   2.149230  6257.731064
   2.150830  6256.912586
   2.152430  6256.420665
   2.154031  6256.251414
   2.155631  6256.400942
   2.157231  6256.865358
   2.158832  6257.640772
   2.160432  6258.723298
   2.162032  6260.109049
   2.163633  6261.794145
   2.165233  6263.774711
   2.166833  6266.046875
   2.168434  6268.606774
   2.170034  6271.450554
   2.171634  6274.574368
   2.173235  6277.974378
   2.174835  6281.646758
   2.176435  6285.587692
   2.178036  6289.793378
   2.179636  6294.260025
   2.181236  6298.983858
   2.182837  6303.961114
   2.184437  6309.188046
   2.186037  6314.660925
   2.187638  6320.376036
   2.189238  6326.329683
   2.190838  6332.518186
   2.192438  6338.937887
   2.194039  6345.585144
   2.195639  6352.456337
   2.197239  6359.547866
   2.198840  6366.856149
   2.200440  6374.377631
   2.202040  6382.108774
   2.203641  6390.046066
   2.205241  6398.186016
   2.206841  6406.525156
   2.208442  6415.060043
   2.210042  6423.787259
   2.211642  6432.703409
   2.213243  6441.805124
   2.214843  6451.089059
   2.216443  6460.551896
   2.218044  6470.190344
   2.219644  6480.001136
   2.221244  6489.981032
   2.222845  6500.126821
   2.224445  6510.435317
   2.226045  6520.903362
   2.227646  6531.527826
   2.229246  6542.305607
   2.230846  6553.233628
   2.232446  6564.308845
   2.234047  6575.528239
   2.235647  6586.888821
   2.237247  6598.387628
   2.238848  6610.021728
   2.240448  6621.788218
   2.242048  6633.684222
   2.243649  6645.706895
   2.245249  6657.853420
   2.246849  6670.121007
   2.248450  6682.506899
   2.250050  6695.008365
   2.251650  6707.622704
   2.253251  6720.347244
   2.254851  6733.179343
   2.256451  6746.116386
   2.258052  6759.155788
   2.259652  6772.294994
   2.261252  6785.531476
   2.262853  6798.862735
   2.264453  6812.286303
   2.266053  6825.799738
   2.267654  6839.400627
   2.269254  6853.086587
   2.270854  6866.855261
   2.272454  6880.704321
   2.274055  6894.631468
   2.275655  6908.634430
   2.277255  6922.710963
   2.278856  6936.858851
   2.280456  6951.075904
   2.282056  6965.359961
   2.283657  6979.708887
   2.285257  6994.120574
   2.286857  7008.592941
   2.288458  7023.123935
   2.290058  7037.711525
   2.291658  7052.353711
   2.293259  7067.048517
   2.294859  7081.793992
   2.296459  7096.588211
   2.298060  7111.429274
   2.299660  7126.315308
   2.301260  7141.244463
   2.302861  7156.214912
   2.304461  7171.224857
   2.306061  7186.272520
   2.307662  7201.356148
   2.309262  7216.474014
   2.310862  7231.624410
   2.312462  7246.805655
   2.314063  7262.016090
   2.315663  7277.254077
   2.317263  7292.518003
   2.318864  7307.806274
   2.320464  7323.117322
   2.322064  7338.449596
   2.323665  7353.801571
   2.325265  7369.171740
   2.326865  7384.558618
   2.328466  7399.960741
   2.330066  7415.376663
   2.331666  7430.804962
   2.333267  7446.244234
   2.334867  7461.693093
   2.336467  7477.150174
   2.338068  7492.614132
   2.339668  7508.083639
   2.341268  7523.557387
   2.342869  7539.034084
   2.344469  7554.512459
   2.346069  7569.991257
   2.347670  7585.469242
   2.349270  7600.945193
   2.350870  7616.417908
   2.352470  7631.886201
   2.354071  7647.348902
   2.355671  7662.804860
   2.357271  7678.252936
   2.358872  7693.692011
   2.360472  7709.120977
   2.362072  7724.538746
   2.363673  7739.944242
   2.365273  7755.336404
   2.366873  7770.714188
   2.368474  7786.076562
   2.370074  7801.422509
   2.371674  7816.751026
   2.373275  7832.061123
   2.374875  7847.351825
   2.376475  7862.622169
   2.378076  7877.871206
   2.379676  7893.097998
   2.381276  7908.301621
   2.382877  7923.481165
   2.384477  7938.635729
   2.386077  7953.764425
   2.387678  7968.866379
   2.389278  7983.940725
   2.390878  7998.986612
   2.392478  8014.003197
   2.394079  8028.989651
   2.395679  8043.945152
   2.397279  8058.868893
   2.398880  8073.760074
   2.400480  8088.617908
   2.402080  8103.441615
   2.403681  8118.230427
   2.405281  8132.983586
   2.406881  8147.700342
   2.408482  8162.379956
   2.410082  8177.021697
   2.411682  8191.624844
   2.413283  8206.188683
   2.414883  8220.712512
   2.416483  8235.195634
   2.418084  8249.637363
   2.419684  8264.037021
   2.421284  8278.393936
   2.422885  8292.707447
   2.424485  8306.976899
   2.426085  8321.201644
   2.427686  8335.381044
   2.429286  8349.514467
   2.430886  8363.601288
   2.432486  8377.640890
   2.434087  8391.632662
   2.435687  8405.576000
   2.437287  8419.470310
   2.438888  8433.314999
   2.440488  8447.109486
   2.442088  8460.853192
   2.443689  8474.545548
   2.445289  8488.185989
   2.446889  8501.773957
   2.448490  8515.308900
   2.450090  8528.790272
   2.451690  8542.217531
   2.453291  8555.590144
   2.454891  8568.907581
   2.456491  8582.169319
   2.458092  8595.374840
   2.459692  8608.523631
   2.461292  8621.615184
   2.462893  8634.648998
   2.464493  8647.624575
   2.466093  8660.541422
   2.467694  8673.399054
   2.469294  8686.196987
   2.470894  8698.934744
   2.472494  8711.611852
   2.474095  8724.227843
   2.475695  8736.782253
   2.477295  8749.274624
   2.478896  8761.704501
   2.480496  8774.071433
   2.482096  8786.374975
   2.483697  8798.614685
   2.485297  8810.790126
   2.486897  8822.900865
   2.488498  8834.946472
   2.490098  8846.926522
   2.491698  8858.840594
   2.493299  8870.688271
   2.494899  8882.469140
   2.496499  8894.182792
   2.498100  8905.828820
   2.499700  8917.406822
   2.501300  8928.916402
   2.502901  8940.357164
   2.504501  8951.728717
   2.506101  8963.030674
   2.507702  8974.262652
   2.509302  8985.424270
   2.510902  8996.515152
   2.512503  9007.534924
   2.514103  9018.483216
   2.515703  9029.359663
   2.517303  9040.163901
   2.518904  9050.895571
   2.520504  9061.554315
   2.522104  9072.139781
   2.523705  9082.651619
   2.525305  9093.089482
   2.526905  9103.453027
   2.528506  9113.741913
   2.530106  9123.955803
   2.531706  9134.094363
   2.533307  9144.157263
   2.534907  9154.144173
   2.536507  9164.054771
   2.538108  9173.888733
   2.539708  9183.645741
   2.541308  9193.325480
   2.542909  9202.927637
   2.544509  9212.451901
   2.546109  9221.897968
   2.547710  9231.265532
   2.549310  9240.554293
   2.550910  9249.763953
   2.552511  9258.894217
   2.554111  9267.944793
   2.555711  9276.915392
   2.557311  9285.805728
   2.558912  9294.615518
   2.560512  9303.344481
   2.562112  9311.992339
   2.563713  9320.558818
   2.565313  9329.043645
   2.566913  9337.446553
   2.568514  9345.767274
   2.570114  9354.005545
   2.571714  9362.161107
   2.573315  9370.233700
   2.574915  9378.223070
   2.576515  9386.128966
   2.578116  9393.951138
   2.579716  9401.689339
   2.581316  9409.343326
   2.582917  9416.912858
   2.584517  9424.397697
   2.586117  9431.797608
   2.587718  9439.112358
   2.589318  9446.341718
   2.590918  9453.485461
   2.592519  9460.543363
   2.594119  9467.515202
   2.595719  9474.400761
   2.597319  9481.199823
   2.598920  9487.912176
   2.600520  9494.537610
   2.602120  9501.075917
   2.603721  9507.526893
   2.605321  9513.890336
   2.606921  9520.166048
   2.608522  9526.353832
   2.610122  9532.453495
   2.611722  9538.464846
   2.613323  9544.387699
   2.614923  9550.221867
   2.616523  9555.967169
   2.618124  9561.623427
   2.619724  9567.190462
   2.621324  9572.668102
   2.622925  9578.056176
   2.624525  9583.354516
   2.626125  9588.562956
   2.627726  9593.681335
   2.629326  9598.709493
   2.630926  9603.647273
   2.632527  9608.494521
   2.634127  9613.251086
   2.635727  9617.916821
   2.637327  9622.491579
   2.638928  9626.975219
   2.640528  9631.367600
   2.642128  9635.668585
   2.643729  9639.878042
   2.645329  9643.995838
   2.646929  9648.021846
   2.648530  9651.955940
   2.650130  9655.797997
   2.651730  9659.547899
   2.653331  9663.205527
   2.654931  9666.770768
   2.656531  9670.243512
   2.658132  9673.623649
   2.659732  9676.911075
   2.661332  9680.105687
   2.662933  9683.207386
   2.664533  9686.216075
   2.666133  9689.131660
   2.667734  9691.954050
   2.669334  9694.683158
   2.670934  9697.318898
   2.672535  9699.861189
   2.674135  9702.309950
   2.675735  9704.665105
   2.677335  9706.926582
   2.678936  9709.094309
   2.680536  9711.168219
   2.682136  9713.148247
   2.683737  9715.034331
   2.685337  9716.826412
   2.686937  9718.524435
   2.688538  9720.128346
   2.690138  9721.638094
   2.691738  9723.053634
   2.693339  9724.374920
   2.694939  9725.601911
   2.696539  9726.734568
   2.698140  9727.772856
   2.699740  9728.716743
   2.701340  9729.566198
   2.702941  9730.321194
   2.704541  9730.981709
   2.706141  9731.547720
   2.707742  9732.019211
   2.709342  9732.396165
   2.710942  9732.678571
   2.712543  9732.866419
   2.714143  9732.959703
   2.715743  9732.958419
   2.717343  9732.862568
   2.718944  9732.672151
   2.720544  9732.387175
   2.722144  9732.007646
   2.723745  9731.533577
   2.725345  9730.964981
   2.726945  9730.301876
   2.728546  9729.544282
   2.730146  9728.692221
   2.731746  9727.745720
   2.733347  9726.704806
   2.734947  9725.569512
   2.736547  9724.339872
   2.738148  9723.015923
   2.739748  9721.597706
   2.741348  9720.085265
   2.742949  9718.478644
   2.744549  9716.777894
   2.746149  9714.983066
   2.747750  9713.094214
   2.749350  9711.111398
   2.750950  9709.034676
   2.752551  9706.864114
   2.754151  9704.599776
   2.755751  9702.241732
   2.757351  9699.790055
   2.758952  9697.244819
   2.760552  9694.606102
   2.762152  9691.873984
   2.763753  9689.048550
   2.765353  9686.129885
   2.766953  9683.118079
   2.768554  9680.013224
   2.770154  9676.815414
   2.771754  9673.524748
   2.773355  9670.141326
   2.774955  9666.665250
   2.776555  9663.096628
   2.778156  9659.435569
   2.779756  9655.682183
   2.781356  9651.836587
   2.782957  9647.898896
   2.784557  9643.869231
   2.786157  9639.747716
   2.787758  9635.534475
   2.789358  9631.229637
   2.790958  9626.833334
   2.792559  9622.345699
   2.794159  9617.766869
   2.795759  9613.096983
   2.797359  9608.336184
   2.798960  9603.484617
   2.800560  9598.542429
   2.802160  9593.509770
   2.803761  9588.386794
   2.805361  9583.173656
   2.806961  9577.870514
   2.808562  9572.477530
   2.810162  9566.994868
   2.811762  9561.422693
   2.813363  9555.761175
   2.814963  9550.010486
   2.816563  9544.170800
   2.818164  9538.242293
   2.819764  9532.225145
   2.821364  9526.119540
   2.822965  9519.925660
   2.824565  9513.643694
   2.826165  9507.273832
   2.827766  9500.816265
   2.829366  9494.271190
   2.830966  9487.638804
   2.832567  9480.919307
   2.834167  9474.112901
   2.835767  9467.219792
   2.837367  9460.240187
   2.838968  9453.174297
   2.840568  9446.022335
   2.842168  9438.784515
   2.843769  9431.461056
   2.845369  9424.052177
   2.846969  9416.558101
   2.848570  9408.979052
   2.850170  9401.315259
   2.851770  9393.566951
   2.853371  9385.734361
   2.854971  9377.817722
   2.856571  9369.817272
   2.858172  9361.733250
   2.859772  9353.565898
   2.861372  9345.315460
   2.862973  9336.982182
   2.864573  9328.566314
   2.866173  9320.068105
   2.867774  9311.487809
   2.869374  9302.825682
   2.870974  9294.081981
   2.872575  9285.256967
   2.874175  9276.350902
   2.875775  9267.364050
   2.877375  9258.296679
   2.878976  9249.149056
   2.880576  9239.921454
   2.882176  9230.614145
   2.883777  9221.227405
   2.885377  9211.761512
   2.886977  9202.216745
   2.888578  9192.593386
   2.890178  9182.891719
   2.891778  9173.112030
   2.893379  9163.254608
   2.894979  9153.319743
   2.896579  9143.307726
   2.898180  9133.218852
   2.899780  9123.053417
   2.901380  9112.811720
   2.902981  9102.494061
   2.904581  9092.100742
   2.906181  9081.632068
   2.907782  9071.088344
   2.909382  9060.469879
   2.910982  9049.776982
   2.912583  9039.009967
   2.914183  9028.169145
   2.915783  9017.254834
   2.917383  9006.267351
   2.918984  8995.207015
   2.920584  8984.074147
   2.922184  8972.869070
   2.923785  8961.592110
   2.925385  8950.243592
   2.926985  8938.823846
   2.928586  8927.333200
   2.930186  8915.771988
   2.931786  8904.140542
   2.933387  8892.439198
   2.934987  8880.668293
   2.936587  8868.828165
   2.938188  8856.919154
   2.939788  8844.941604
   2.941388  8832.895856
   2.942989  8820.782256
   2.944589  8808.601150
   2.946189  8796.352888
   2.947790  8784.037819
   2.949390  8771.656293
   2.950990  8759.208665
   2.952591  8746.695288
   2.954191  8734.116518
   2.955791  8721.472712
   2.957391  8708.764230
   2.958992  8695.991431
   2.960592  8683.154678
   2.962192  8670.254332
   2.963793  8657.290759
   2.965393  8644.264324
   2.966993  8631.175395
   2.968594  8618.024339
   2.970194  8604.811527
   2.971794  8591.537329
   2.973395  8578.202119
   2.974995  8564.806269
   2.976595  8551.350154
   2.978196  8537.834151
   2.979796  8524.258636
   2.981396  8510.623989
   2.982997  8496.930589
   2.984597  8483.178816
   2.986197  8469.369054
   2.987798  8455.501683
   2.989398  8441.577090
   2.990998  8427.595659
   2.992599  8413.557777
   2.994199  8399.463830
   2.995799  8385.314208
   2.997399  8371.109299
   2.999000  8356.849495
   3.000600  8342.535186
   3.002200  8328.166766
   3.003801  8313.744626
   3.005401  8299.269163
   3.007001  8284.740770
   3.008602  8270.159844
   3.010202  8255.526781
   3.011802  8240.841981
   3.013403  8226.105840
   3.015003  8211.318759
   3.016603  8196.481138
   3.018204  8181.593378
   3.019804  8166.655880
   3.021404  8151.669048
   3.023005  8136.633284
   3.024605  8121.548993
   3.026205  8106.416579
   3.027806  8091.236448
   3.029406  8076.009005
   3.031006  8060.734658
   3.032607  8045.413813
   3.034207  8030.046878
   3.035807  8014.634262
   3.037407  7999.176375
   3.039008  7983.673624
   3.040608  7968.126422
   3.042208  7952.535178
   3.043809  7936.900303
   3.045409  7921.222210
   3.047009  7905.501309
   3.048610  7889.738015
   3.050210  7873.932738
   3.051810  7858.085895
   3.053411  7842.197896
   3.055011  7826.269158
   3.056611  7810.300094
   3.058212  7794.291119
   3.059812  7778.242649
   3.061412  7762.155099
   3.063013  7746.028884
   3.064613  7729.864420
   3.066213  7713.662124
   3.067814  7697.422413
   3.069414  7681.145702
   3.071014  7664.832409
   3.072615  7648.482951
   3.074215  7632.097745
   3.075815  7615.677208
   3.077415  7599.221759
   3.079016  7582.731813
   3.080616  7566.207790
   3.082216  7549.650107
   3.083817  7533.059182
   3.085417  7516.435433
   3.087017  7499.779276
   3.088618  7483.091132
   3.090218  7466.371416
   3.091818  7449.620548
   3.093419  7432.838945
   3.095019  7416.027024
   3.096619  7399.185204
   3.098220  7382.313901
   3.099820  7365.413534
   3.101420  7348.484520
   3.103021  7331.527275
   3.104621  7314.542217
   3.106221  7297.529763
   3.107822  7280.490329
   3.109422  7263.424332
   3.111022  7246.332188
   3.112623  7229.214312
   3.114223  7212.071121
   3.115823  7194.903030
   3.117423  7177.710454
   3.119024  7160.493808
   3.120624  7143.253506
   3.122224  7125.989962
   3.123825  7108.703590
   3.125425  7091.394804
   3.127025  7074.064016
   3.128626  7056.711639
   3.130226  7039.338086
   3.131826  7021.943767
   3.133427  7004.529094
   3.135027  6987.094479
   3.136627  6969.640330
   3.138228  6952.167059
   3.139828  6934.675074
   3.141428  6917.164783
   3.143029  6899.636597
   3.144629  6882.090921
   3.146229  6864.528163
   3.147830  6846.948729
   3.149430  6829.353025
   3.151030  6811.741457
   3.152631  6794.114430
   3.154231  6776.472346
   3.155831  6758.815609
   3.157431  6741.144622
   3.159032  6723.459787
   3.160632  6705.761505
   3.162232  6688.050176
   3.163833  6670.326200
   3.165433  6652.589976
   3.167033  6634.841902
   3.168634  6617.082376
   3.170234  6599.311794
   3.171834  6581.530553
   3.173435  6563.739046
   3.175035  6545.937668
   3.176635  6528.126813
   3.178236  6510.306872
   3.179836  6492.478238
   3.181436  6474.641301
   3.183037  6456.796450
   3.184637  6438.944075
   3.186237  6421.084563
   3.187838  6403.218302
   3.189438  6385.345677
   3.191038  6367.467073
   3.192639  6349.582875
   3.194239  6331.693465
   3.195839  6313.799225
   3.197439  6295.900537
   3.199040  6277.997780
   3.200640  6260.091333
   3.202240  6242.181575
   3.203841  6224.268881
   3.205441  6206.353628
   3.207041  6188.436190
   3.208642  6170.516941
   3.210242  6152.596253
   3.211842  6134.674497
   3.213443  6116.752044
   3.215043  6098.829262
   3.216643  6080.906519
   3.218244  6062.984181
   3.219844  6045.062615
   3.221444  6027.142185
   3.223045  6009.223252
   3.224645  5991.306180
   3.226245  5973.391329
   3.227846  5955.479057
   3.229446  5937.569724
   3.231046  5919.663685
   3.232647  5901.761297
   3.234247  5883.862914
   3.235847  5865.968888
   3.237447  5848.079571
   3.239048  5830.195314
   3.240648  5812.316465
   3.242248  5794.443372
   3.243849  5776.576382
   3.245449  5758.715840
   3.247049  5740.862088
   3.248650  5723.015470
   3.250250  5705.176325
   3.251850  5687.344994
   3.253451  5669.521815
   3.255051  5651.707124
   3.256651  5633.901257
   3.258252  5616.104546
   3.259852  5598.317325
   3.261452  5580.539925
   3.263053  5562.772674
   3.264653  5545.015902
   3.266253  5527.269933
   3.267854  5509.535095
   3.269454  5491.811709
   3.271054  5474.100098
   3.272655  5456.400583
   3.274255  5438.713482
   3.275855  5421.039114
   3.277455  5403.377794
   3.279056  5385.729836
   3.280656  5368.095554
   3.282256  5350.475259
   3.283857  5332.869261
   3.285457  5315.277868
   3.287057  5297.701386
   3.288658  5280.140122
   3.290258  5262.594377
   3.291858  5245.064455
   3.293459  5227.550656
   3.295059  5210.053278
   3.296659  5192.572618
   3.298260  5175.108973
   3.299860  5157.662635
   3.301460  5140.233898
   3.303061  5122.823051
   3.304661  5105.430385
   3.306261  5088.056185
   3.307862  5070.700739
   3.309462  5053.364329
   3.311062  5036.047239
   3.312663  5018.749749
   3.314263  5001.472138
   3.315863  4984.214684
   3.317463  4966.977662
   3.319064  4949.761346
   3.320664  4932.566009
   3.322264  4915.391921
   3.323865  4898.239351
   3.325465  4881.108566
   3.327065  4863.999833
   3.328666  4846.913414
   3.330266  4829.849571
   3.331866  4812.808566
   3.333467  4795.790657
   3.335067  4778.796100
   3.336667  4761.825151
   3.338268  4744.878064
   3.339868  4727.955089
   3.341468  4711.056478
   3.343069  4694.182478
   3.344669  4677.333335
   3.346269  4660.509295
   3.347870  4643.710600
   3.349470  4626.937491
   3.351070  4610.190209
   3.352671  4593.468990
   3.354271  4576.774071
   3.355871  4560.105685
   3.357471  4543.464066
   3.359072  4526.849444
   3.360672  4510.262047
   3.362272  4493.702102
   3.363873  4477.169835
   3.365473  4460.665470
   3.367073  4444.189228
   3.368674  4427.741329
   3.370274  4411.321991
   3.371874  4394.931430
   3.373475  4378.569861
   3.375075  4362.237497
   3.376675  4345.934549
   3.378276  4329.661226
   3.379876  4313.417735
   3.381476  4297.204283
   3.383077  4281.021072
   3.384677  4264.868304
   3.386277  4248.746181
   3.387878  4232.654900
   3.389478  4216.594658
   3.391078  4200.565650
   3.392679  4184.568069
   3.394279  4168.602106
   3.395879  4152.667950
   3.397479  4136.765790
   3.399080  4120.895810
   3.400680  4105.058195
   3.402280  4089.253128
   3.403881  4073.480788
   3.405481  4057.741355
   3.407081  4042.035005
   3.408682  4026.361913
   3.410282  4010.722252
   3.411882  3995.116195
   3.413483  3979.543910
   3.415083  3964.005565
   3.416683  3948.501327
   3.418284  3933.031360
   3.419884  3917.595826
   3.421484  3902.194887
   3.423085  3886.828700
   3.424685  3871.497424
   3.426285  3856.201213
   3.427886  3840.940221
   3.429486  3825.714601
   3.431086  3810.524501
   3.432687  3795.370071
   3.434287  3780.251456
   3.435887  3765.168802
   3.437487  3750.122251
   3.439088  3735.111945
   3.440688  3720.138023
   3.442288  3705.200623
   3.443889  3690.299881
   3.445489  3675.435930
   3.447089  3660.608903
   3.448690  3645.818931
   3.450290  3631.066143
   3.451890  3616.350666
   3.453491  3601.672625
   3.455091  3587.032144
   3.456691  3572.429345
   3.458292  3557.864349
   3.459892  3543.337272
   3.461492  3528.848233
   3.463093  3514.397347
   3.464693  3499.984726
   3.466293  3485.610482
   3.467894  3471.274725
   3.469494  3456.977564
   3.471094  3442.719105
   3.472695  3428.499452
   3.474295  3414.318708
   3.475895  3400.176976
   3.477495  3386.074355
   3.479096  3372.010942
   3.480696  3357.986834
   3.482296  3344.002126
   3.483897  3330.056911
   3.485497  3316.151279
   3.487097  3302.285321
   3.488698  3288.459125
   3.490298  3274.672777
   3.491898  3260.926362
   3.493499  3247.219962
   3.495099  3233.553660
   3.496699  3219.927534
   3.498300  3206.341663
   3.499900  3192.796124
   3.501500  3179.290992
   3.503101  3165.826339
   3.504701  3152.402238
   3.506301  3139.018758
   3.507902  3125.675968
   3.509502  3112.373935
   3.511102  3099.112724
   3.512703  3085.892399
   3.514303  3072.713022
   3.515903  3059.574654
   3.517504  3046.477353
   3.519104  3033.421177
   3.520704  3020.406182
   3.522304  3007.432422
   3.523905  2994.499950
   3.525505  2981.608817
   3.527105  2968.759073
   3.528706  2955.950766
   3.530306  2943.183943
   3.531906  2930.458649
   3.533507  2917.774927
   3.535107  2905.132820
   3.536707  2892.532368
   3.538308  2879.973610
   3.539908  2867.456585
   3.541508  2854.981328
   3.543109  2842.547874
   3.544709  2830.156256
   3.546309  2817.806507
   3.547910  2805.498655
   3.549510  2793.232731
   3.551110  2781.008762
   3.552711  2768.826774
   3.554311  2756.686790
   3.555911  2744.588836
   3.557512  2732.532931
   3.559112  2720.519098
   3.560712  2708.547354
   3.562312  2696.617717
   3.563913  2684.730203
   3.565513  2672.884828
   3.567113  2661.081604
   3.568714  2649.320544
   3.570314  2637.601658
   3.571914  2625.924956
   3.573515  2614.290445
   3.575115  2602.698133
   3.576715  2591.148025
   3.578316  2579.640125
   3.579916  2568.174434
   3.581516  2556.750956
   3.583117  2545.369690
   3.584717  2534.030634
   3.586317  2522.733786
   3.587918  2511.479143
   3.589518  2500.266700
   3.591118  2489.096449
   3.592719  2477.968384
   3.594319  2466.882496
   3.595919  2455.838774
   3.597520  2444.837208
   3.599120  2433.877784
   3.600720  2422.960489
   3.602320  2412.085309
   3.603921  2401.252226
   3.605521  2390.461224
   3.607121  2379.712284
   3.608722  2369.005386
   3.610322  2358.340510
   3.611922  2347.717633
   3.613523  2337.136731
   3.615123  2326.597782
   3.616723  2316.100758
   3.618324  2305.645634
   3.619924  2295.232381
   3.621524  2284.860970
   3.623125  2274.531372
   3.624725  2264.243556
   3.626325  2253.997488
   3.627926  2243.793137
   3.629526  2233.630466
   3.631126  2223.509441
   3.632727  2213.430026
   3.634327  2203.392182
   3.635927  2193.395870
   3.637528  2183.441052
   3.639128  2173.527686
   3.640728  2163.655730
   3.642328  2153.825142
   3.643929  2144.035878
   3.645529  2134.287892
   3.647129  2124.581139
   3.648730  2114.915573
   3.650330  2105.291145
   3.651930  2095.707806
   3.653531  2086.165507
   3.655131  2076.664197
   3.656731  2067.203825
   3.658332  2057.784337
   3.659932  2048.405679
   3.661532  2039.067799
   3.663133  2029.770639
   3.664733  2020.514145
   3.666333  2011.298258
   3.667934  2002.122920
   3.669534  1992.988072
   3.671134  1983.893655
   3.672735  1974.839608
   3.674335  1965.825869
   3.675935  1956.852375
   3.677536  1947.919063
   3.679136  1939.025869
   3.680736  1930.172728
   3.682336  1921.359574
   3.683937  1912.586340
   3.685537  1903.852959
   3.687137  1895.159363
   3.688738  1886.505482
   3.690338  1877.891246
   3.691938  1869.316586
   3.693539  1860.781428
   3.695139  1852.285702
   3.696739  1843.829335
   3.698340  1835.412251
   3.699940  1827.034378
   3.701540  1818.695639
   3.703141  1810.395960
   3.704741  1802.135263
   3.706341  1793.913470
   3.707942  1785.730505
   3.709542  1777.586288
   3.711142  1769.480739
   3.712743  1761.413780
   3.714343  1753.385328
   3.715943  1745.395302
   3.717544  1737.443620
   3.719144  1729.530201
   3.720744  1721.654959
   3.722344  1713.817811
   3.723945  1706.018672
   3.725545  1698.257458
   3.727145  1690.534082
   3.728746  1682.848457
   3.730346  1675.200497
   3.731946  1667.590114
   3.733547  1660.017220
   3.735147  1652.481725
   3.736747  1644.983540
   3.738348  1637.522576
   3.739948  1630.098742
   3.741548  1622.711946
   3.743149  1615.362097
   3.744749  1608.049104
   3.746349  1600.772872
   3.747950  1593.533310
   3.749550  1586.330322
   3.751150  1579.163816
   3.752751  1572.033697
   3.754351  1564.939868
   3.755951  1557.882235
   3.757552  1550.860702
   3.759152  1543.875171
   3.760752  1536.925546
   3.762352  1530.011729
   3.763953  1523.133622
   3.765553  1516.291127
   3.767153  1509.484145
   3.768754  1502.712577
   3.770354  1495.976322
   3.771954  1489.275281
   3.773555  1482.609354
   3.775155  1475.978439
   3.776755  1469.382435
   3.778356  1462.821240
   3.779956  1456.294753
   3.781556  1449.802871
   3.783157  1443.345491
   3.784757  1436.922510
   3.786357  1430.533824
   3.787958  1424.179330
   3.789558  1417.858924
   3.791158  1411.572500
   3.792759  1405.319955
   3.794359  1399.101182
   3.795959  1392.916077
   3.797560  1386.764533
   3.799160  1380.646446
   3.800760  1374.561707
   3.802360  1368.510211
   3.803961  1362.491851
   3.805561  1356.506519
   3.807161  1350.554108
   3.808762  1344.634510
   3.810362  1338.747618
   3.811962  1332.893322
   3.813563  1327.071515
   3.815163  1321.282089
   3.816763  1315.524932
   3.818364  1309.799938
   3.819964  1304.106996
   3.821564  1298.445997
   3.823165  1292.816830
   3.824765  1287.219387
   3.826365  1281.653556
   3.827966  1276.119228
   3.829566  1270.616292
   3.831166  1265.144636
   3.832767  1259.704151
   3.834367  1254.294725
   3.835967  1248.916246
   3.837568  1243.568605
   3.839168  1238.251688
   3.840768  1232.965384
   3.842368  1227.709581
   3.843969  1222.484168
   3.845569  1217.289033
   3.847169  1212.124062
   3.848770  1206.989145
   3.850370  1201.884168
   3.851970  1196.809019
   3.853571  1191.763585
   3.855171  1186.747754
   3.856771  1181.761412
   3.858372  1176.804448
   3.859972  1171.876747
   3.861572  1166.978198
   3.863173  1162.108686
   3.864773  1157.268099
   3.866373  1152.456323
   3.867974  1147.673245
   3.869574  1142.918753
   3.871174  1138.192731
   3.872775  1133.495068
   3.874375  1128.825650
   3.875975  1124.184362
   3.877576  1119.571093
   3.879176  1114.985727
   3.880776  1110.428153
   3.882376  1105.898255
   3.883977  1101.395921
   3.885577  1096.921038
   3.887177  1092.473491
   3.888778  1088.053167
   3.890378  1083.659952
   3.891978  1079.293734
   3.893579  1074.954399
   3.895179  1070.641833
   3.896779  1066.355923
   3.898380  1062.096555
   3.899980  1057.863617
   3.901580  1053.656994
   3.903181  1049.476575
   3.904781  1045.322245
   3.906381  1041.193892
   3.907982  1037.091402
   3.909582  1033.014662
   3.911182  1028.963561
   3.912783  1024.937984
   3.914383  1020.937819
   3.915983  1016.962954
   3.917584  1013.013276
   3.919184  1009.088672
   3.920784  1005.189030
   3.922384  1001.314237
   3.923985   997.464182
   3.925585   993.638753
   3.927185   989.837837
   3.928786   986.061323
   3.930386   982.309099
   3.931986   978.581053
   3.933587   974.877074
   3.935187   971.197050
   3.936787   967.540871
   3.938388   963.908424
   3.939988   960.299600
   3.941588   956.714287
   3.943189   953.152375
   3.944789   949.613753
   3.946389   946.098311
   3.947990   942.605938
   3.949590   939.136526
   3.951190   935.689962
   3.952791   932.266139
   3.954391   928.864946
   3.955991   925.486274
   3.957592   922.130014
   3.959192   918.796057
   3.960792   915.484294
   3.962392   912.194616
   3.963993   908.926915
   3.965593   905.681082
   3.967193   902.457010
   3.968794   899.254590
   3.970394   896.073715
   3.971994   892.914278
   3.973595   889.776171
   3.975195   886.659287
   3.976795   883.563518
   3.978396   880.488760
   3.979996   877.434904
   3.981596   874.401845
   3.983197   871.389477
   3.984797   868.397694
   3.986397   865.426391
   3.987998   862.475461
   3.989598   859.544801
   3.991198   856.634304
   3.992799   853.743868
   3.994399   850.873386
   3.995999   848.022755
   3.997600   845.191871
   3.999200   842.380631
   4.000800   839.588931
   4.002400   836.816667
   4.004001   834.063738
   4.005601   831.330039
   4.007201   828.615470
   4.008802   825.919926
   4.010402   823.243308
   4.012002   820.585513
   4.013603   817.946439
   4.015203   815.325986
   4.016803   812.724053
   4.018404   810.140539
   4.020004   807.575344
   4.021604   805.028368
   4.023205   802.499511
   4.024805   799.988674
   4.026405   797.495757
   4.028006   795.020661
   4.029606   792.563289
   4.031206   790.123541
   4.032807   787.701319
   4.034407   785.296526
   4.036007   782.909065
   4.037608   780.538837
   4.039208   778.185747
   4.040808   775.849697
   4.042408   773.530591
   4.044009   771.228333
   4.045609   768.942827
   4.047209   766.673979
   4.048810   764.421692
   4.050410   762.185872
   4.052010   759.966425
   4.053611   757.763256
   4.055211   755.576271
   4.056811   753.405377
   4.058412   751.250481
   4.060012   749.111488
   4.061612   746.988308
   4.063213   744.880847
   4.064813   742.789013
   4.066413   740.712714
   4.068014   738.651860
   4.069614   736.606358
   4.071214   734.576119
   4.072815   732.561051
   4.074415   730.561064
   4.076015   728.576070
   4.077616   726.605977
   4.079216   724.650697
   4.080816   722.710142
   4.082416   720.784221
   4.084017   718.872848
   4.085617   716.975934
   4.087217   715.093392
   4.088818   713.225134
   4.090418   711.371073
   4.092018   709.531123
   4.093619   707.705198
   4.095219   705.893212
   4.096819   704.095078
   4.098420   702.310712
   4.100020   700.540029
   4.101620   698.782943
   4.103221   697.039372
   4.104821   695.309230
   4.106421   693.592434
   4.108022   691.888901
   4.109622   690.198547
   4.111222   688.521291
   4.112823   686.857050
   4.114423   685.205741
   4.116023   683.567284
   4.117624   681.941597
   4.119224   680.328598
   4.120824   678.728208
   4.122424   677.140346
   4.124025   675.564932
   4.125625   674.001886
   4.127225   672.451130
   4.128826   670.912583
   4.130426   669.386168
   4.132026   667.871807
   4.133627   666.369420
   4.135227   664.878932
   4.136827   663.400264
   4.138428   661.933339
   4.140028   660.478081
   4.141628   659.034414
   4.143229   657.602262
   4.144829   656.181549
   4.146429   654.772199
   4.148030   653.374139
   4.149630   651.987293
   4.151230   650.611588
   4.152831   649.246949
   4.154431   647.893302
   4.156031   646.550576
   4.157632   645.218696
   4.159232   643.897590
   4.160832   642.587186
   4.162432   641.287412
   4.164033   639.998197
   4.165633   638.719469
   4.167233   637.451158
   4.168834   636.193193
   4.170434   634.945504
   4.172034   633.708021
   4.173635   632.480674
   4.175235   631.263395
   4.176835   630.056114
   4.178436   628.858763
   4.180036   627.671274
   4.181636   626.493579
   4.183237   625.325610
   4.184837   624.167301
   4.186437   623.018584
   4.188038   621.879394
   4.189638   620.749663
   4.191238   619.629326
   4.192839   618.518317
   4.194439   617.416572
   4.196039   616.324026
   4.197640   615.240613
   4.199240   614.166270
   4.200840   613.100933
   4.202440   612.044539
   4.204041   610.997023
   4.205641   609.958324
   4.207241   608.928379
   4.208842   607.907125
   4.210442   606.894501
   4.212042   605.890445
   4.213643   604.894896
   4.215243   603.907793
   4.216843   602.929075
   4.218444   601.958683
   4.220044   600.996555
   4.221644   600.042633
   4.223245   599.096857
   4.224845   598.159168
   4.226445   597.229508
   4.228046   596.307818
   4.229646   595.394040
   4.231246   594.488117
   4.232847   593.589991
   4.234447   592.699604
   4.236047   591.816901
   4.237648   590.941825
   4.239248   590.074319
   4.240848   589.214328
   4.242448   588.361796
   4.244049   587.516669
   4.245649   586.678890
   4.247249   585.848406
   4.248850   585.025163
   4.250450   584.209106
   4.252050   583.400182
   4.253651   582.598337
   4.255251   581.803518
   4.256851   581.015673
   4.258452   580.234750
   4.260052   579.460695
   4.261652   578.693457
   4.263253   577.932986
   4.264853   577.179229
   4.266453   576.432135
   4.268054   575.691654
   4.269654   574.957736
   4.271254   574.230331
   4.272855   573.509388
   4.274455   572.794859
   4.276055   572.086694
   4.277656   571.384845
   4.279256   570.689262
   4.280856   569.999898
   4.282456   569.316705
   4.284057   568.639634
   4.285657   567.968640
   4.287257   567.303674
   4.288858   566.644689
   4.290458   565.991640
   4.292058   565.344479
   4.293659   564.703161
   4.295259   564.067641
   4.296859   563.437872
   4.298460   562.813810
   4.300060   562.195410
   4.301660   561.582628
   4.303261   560.975418
   4.304861   560.373738
   4.306461   559.777543
   4.308062   559.186789
   4.309662   558.601435
   4.311262   558.021436
   4.312863   557.446750
   4.314463   556.877335
   4.316063   556.313149
   4.317664   555.754150
   4.319264   555.200296
   4.320864   554.651546
   4.322464   554.107859
   4.324065   553.569195
   4.325665   553.035512
   4.327265   552.506771
   4.328866   551.982932
   4.330466   551.463954
   4.332066   550.949799
   4.333667   550.440427
   4.335267   549.935799
   4.336867   549.435878
   4.338468   548.940623
   4.340068   548.449997
   4.341668   547.963963
   4.343269   547.482482
   4.344869   547.005517
   4.346469   546.533031
   4.348070   546.064987
   4.349670   545.601349
   4.351270   545.142079
   4.352871   544.687143
   4.354471   544.236503
   4.356071   543.790124
   4.357672   543.347971
   4.359272   542.910009
   4.360872   542.476202
   4.362472   542.046516
   4.364073   541.620916
   4.365673   541.199369
   4.367273   540.781839
   4.368874   540.368295
   4.370474   539.958700
   4.372074   539.553024
   4.373675   539.151232
   4.375275   538.753291
   4.376875   538.359170
   4.378476   537.968835
   4.380076   537.582254
   4.381676   537.199396
   4.383277   536.820229
   4.384877   536.444721
   4.386477   536.072841
   4.388078   535.704558
   4.389678   535.339841
   4.391278   534.978660
   4.392879   534.620984
   4.394479   534.266784
   4.396079   533.916028
   4.397680   533.568687
   4.399280   533.224733
   4.400880   532.884135
   4.402480   532.546864
   4.404081   532.212892
   4.405681   531.882190
   4.407281   531.554729
   4.408882   531.230481
   4.410482   530.909419
   4.412082   530.591513
   4.413683   530.276737
   4.415283   529.965064
   4.416883   529.656465
   4.418484   529.350914
   4.420084   529.048385
   4.421684   528.748849
   4.423285   528.452282
   4.424885   528.158656
   4.426485   527.867946
   4.428086   527.580126
   4.429686   527.295170
   4.431286   527.013053
   4.432887   526.733749
   4.434487   526.457233
   4.436087   526.183481
   4.437688   525.912467
   4.439288   525.644168
   4.440888   525.378559
   4.442488   525.115615
   4.444089   524.855313
   4.445689   524.597629
   4.447289   524.342540
   4.448890   524.090021
   4.450490   523.840050
   4.452090   523.592604
   4.453691   523.347659
   4.455291   523.105194
   4.456891   522.865185
   4.458492   522.627610
   4.460092   522.392447
   4.461692   522.159674
   4.463293   521.929269
   4.464893   521.701211
   4.466493   521.475478
   4.468094   521.252048
   4.469694   521.030900
   4.471294   520.812015
   4.472895   520.595369
   4.474495   520.380944
   4.476095   520.168718
   4.477696   519.958672
   4.479296   519.750784
   4.480896   519.545035
   4.482496   519.341405
   4.484097   519.139875
   4.485697   518.940424
   4.487297   518.743034
   4.488898   518.547685
   4.490498   518.354358
   4.492098   518.163034
   4.493699   517.973695
   4.495299   517.786321
   4.496899   517.600895
   4.498500   517.417398
   4.500100   517.235812
   4.501700   517.056118
   4.503301   516.878300
   4.504901   516.702339
   4.506501   516.528217
   4.508102   516.355918
   4.509702   516.185423
   4.511302   516.016716
   4.512903   515.849780
   4.514503   515.684598
   4.516103   515.521153
   4.517704   515.359429
   4.519304   515.199409
   4.520904   515.041076
   4.522505   514.884415
   4.524105   514.729410
   4.525705   514.576044
   4.527305   514.424302
   4.528906   514.274168
   4.530506   514.125627
   4.532106   513.978664
   4.533707   513.833262
   4.535307   513.689407
   4.536907   513.547084
   4.538508   513.406279
   4.540108   513.266975
   4.541708   513.129159
   4.543309   512.992817
   4.544909   512.857933
   4.546509   512.724494
   4.548110   512.592485
   4.549710   512.461893
   4.551310   512.332703
   4.552911   512.204902
   4.554511   512.078476
   4.556111   511.953412
   4.557712   511.829695
   4.559312   511.707314
   4.560912   511.586255
   4.562513   511.466504
   4.564113   511.348048
   4.565713   511.230876
   4.567313   511.114974
   4.568914   511.000329
   4.570514   510.886929
   4.572114   510.774761
   4.573715   510.663814
   4.575315   510.554075
   4.576915   510.445532
   4.578516   510.338173
   4.580116   510.231987
   4.581716   510.126960
   4.583317   510.023083
   4.584917   509.920343
   4.586517   509.818728
   4.588118   509.718228
   4.589718   509.618831
   4.591318   509.520526
   4.592919   509.423302
   4.594519   509.327149
   4.596119   509.232054
   4.597720   509.138008
   4.599320   509.044999
   4.600920   508.953018
   4.602521   508.862054
   4.604121   508.772096
   4.605721   508.683134
   4.607321   508.595158
   4.608922   508.508158
   4.610522   508.422124
   4.612122   508.337046
   4.613723   508.252914
   4.615323   508.169719
   4.616923   508.087450
   4.618524   508.006098
   4.620124   507.925655
   4.621724   507.846109
   4.623325   507.767453
   4.624925   507.689677
   4.626525   507.612771
   4.628126   507.536727
   4.629726   507.461536
   4.631326   507.387189
   4.632927   507.313678
   4.634527   507.240992
   4.636127   507.169125
   4.637728   507.098066
   4.639328   507.027809
   4.640928   506.958344
   4.642529   506.889663
   4.644129   506.821758
   4.645729   506.754621
   4.647329   506.688244
   4.648930   506.622618
   4.650530   506.557736
   4.652130   506.493590
   4.653731   506.430172
   4.655331   506.367475
   4.656931   506.305490
   4.658532   506.244211
   4.660132   506.183629
   4.661732   506.123738
   4.663333   506.064530
   4.664933   506.005998
   4.666533   505.948135
   4.668134   505.890932
   4.669734   505.834385
   4.671334   505.778484
   4.672935   505.723224
   4.674535   505.668598
   4.676135   505.614599
   4.677736   505.561219
   4.679336   505.508453
   4.680936   505.456294
   4.682537   505.404735
   4.684137   505.353770
   4.685737   505.303393
   4.687337   505.253596
   4.688938   505.204375
   4.690538   505.155721
   4.692138   505.107631
   4.693739   505.060096
   4.695339   505.013112
   4.696939   504.966672
   4.698540   504.920770
   4.700140   504.875401
   4.701740   504.830558
   4.703341   504.786237
   4.704941   504.742430
   4.706541   504.699134
   4.708142   504.656341
   4.709742   504.614046
   4.711342   504.572245
   4.712943   504.530931
   4.714543   504.490100
   4.716143   504.449745
   4.717744   504.409862
   4.719344   504.370446
   4.720944   504.331491
   4.722545   504.292992
   4.724145   504.254944
   4.725745   504.217342
   4.727345   504.180181
   4.728946   504.143457
   4.730546   504.107164
   4.732146   504.071298
   4.733747   504.035854
   4.735347   504.000827
   4.736947   503.966213
   4.738548   503.932006
   4.740148   503.898203
   4.741748   503.864799
   4.743349   503.831789
   4.744949   503.799169
   4.746549   503.766934
   4.748150   503.735081
   4.749750   503.703605
   4.751350   503.672501
   4.752951   503.641766
   4.754551   503.611396
   4.756151   503.581385
   4.757752   503.551731
   4.759352   503.522429
   4.760952   503.493475
   4.762553   503.464866
   4.764153   503.436596
   4.765753   503.408663
   4.767353   503.381063
   4.768954   503.353791
   4.770554   503.326845
   4.772154   503.300219
   4.773755   503.273912
   4.775355   503.247918
   4.776955   503.222235
   4.778556   503.196859
   4.780156   503.171786
   4.781756   503.147014
   4.783357   503.122537
   4.784957   503.098354
   4.786557   503.074460
   4.788158   503.050853
   4.789758   503.027529
   4.791358   503.004484
   4.792959   502.981716
   4.794559   502.959222
   4.796159   502.936997
   4.797760   502.915040
   4.799360   502.893346
   4.800960   502.871913
   4.802561   502.850739
   4.804161   502.829819
   4.805761   502.809151
   4.807361   502.788732
   4.808962   502.768559
   4.810562   502.748629
   4.812162   502.728939
   4.813763   502.709487
   4.815363   502.690270
   4.816963   502.671284
   4.818564   502.652528
   4.820164   502.633999
   4.821764   502.615693
   4.823365   502.597609
   4.824965   502.579743
   4.826565   502.562094
   4.828166   502.544658
   4.829766   502.527433
   4.831366   502.510416
   4.832967   502.493606
   4.834567   502.476999
   4.836167   502.460593
   4.837768   502.444387
   4.839368   502.428376
   4.840968   502.412560
   4.842569   502.396936
   4.844169   502.381501
   4.845769   502.366253
   4.847369   502.351190
   4.848970   502.336311
   4.850570   502.321612
   4.852170   502.307091
   4.853771   502.292747
   4.855371   502.278577
   4.856971   502.264579
   4.858572   502.250751
   4.860172   502.237091
   4.861772   502.223597
   4.863373   502.210267
   4.864973   502.197099
   4.866573   502.184092
   4.868174   502.171242
   4.869774   502.158549
   4.871374   502.146010
   4.872975   502.133623
   4.874575   502.121388
   4.876175   502.109301
   4.877776   502.097361
   4.879376   502.085566
   4.880976   502.073914
   4.882577   502.062405
   4.884177   502.051035
   4.885777   502.039804
   4.887377   502.028709
   4.888978   502.017749
   4.890578   502.006922
   4.892178   501.996227
   4.893779   501.985662
   4.895379   501.975226
   4.896979   501.964916
   4.898580   501.954732
   4.900180   501.944671
   4.901780   501.934733
   4.903381   501.924916
   4.904981   501.915217
   4.906581   501.905637
   4.908182   501.896172
   4.909782   501.886823
   4.911382   501.877587
   4.912983   501.868464
   4.914583   501.859451
   4.916183   501.850547
   4.917784   501.841751
   4.919384   501.833062
   4.920984   501.824478
   4.922585   501.815998
   4.924185   501.807621
   4.925785   501.799345
   4.927385   501.791170
   4.928986   501.783093
   4.930586   501.775114
   4.932186   501.767232
   4.933787   501.759444
   4.935387   501.751751
   4.936987   501.744151
   4.938588   501.736642
   4.940188   501.729224
   4.941788   501.721895
   4.943389   501.714655
   4.944989   501.707502
   4.946589   501.700435
   4.948190   501.693453
   4.949790   501.686555
   4.951390   501.679740
   4.952991   501.673006
   4.954591   501.666354
   4.956191   501.659781
   4.957792   501.653287
   4.959392   501.646871
   4.960992   501.640531
   4.962593   501.634268
   4.964193   501.628079
   4.965793   501.621964
   4.967393   501.615922
   4.968994   501.609952
   4.970594   501.604054
   4.972194   501.598225
   4.973795   501.592466
   4.975395   501.586775
   4.976995   501.581152
   4.978596   501.575596
   4.980196   501.570105
   4.981796   501.564679
   4.983397   501.559318
   4.984997   501.554020
   4.986597   501.548784
   4.988198   501.543611
   4.989798   501.538498
   4.991398   501.533445
   4.992999   501.528452
   4.994599   501.523517
   4.996199   501.518640
   4.997800   501.513821
   4.999400   501.509057
   5.001000   501.504350
   5.002601   501.499697
   5.004201   501.495098
   5.005801   501.490553
   5.007401   501.486061
   5.009002   501.481621
   5.010602   501.477233
   5.012202   501.472895
   5.013803   501.468608
   5.015403   501.464369
   5.017003   501.460180
   5.018604   501.456039
   5.020204   501.451946
   5.021804   501.447899
   5.023405   501.443899
   5.025005   501.439945
   5.026605   501.436036
   5.028206   501.432171
   5.029806   501.428351
   5.031406   501.424574
   5.033007   501.420839
   5.034607   501.417147
   5.036207   501.413497
   5.037808   501.409888
   5.039408   501.406319
   5.041008   501.402791
   5.042609   501.399302
   5.044209   501.395852
   5.045809   501.392441
   5.047409   501.389068
   5.049010   501.385732
   5.050610   501.382433
   5.052210   501.379171
   5.053811   501.375945
   5.055411   501.372755
   5.057011   501.369600
   5.058612   501.366479
   5.060212   501.363392
   5.061812   501.360340
   5.063413   501.357320
   5.065013   501.354334
   5.066613   501.351380
   5.068214   501.348458
   5.069814   501.345567
   5.071414   501.342708
   5.073015   501.339879
   5.074615   501.337081
   5.076215   501.334313
   5.077816   501.331574
   5.079416   501.328864
   5.081016   501.326183
   5.082617   501.323531
   5.084217   501.320906
   5.085817   501.318309
   5.087417   501.315739
   5.089018   501.313196
   5.090618   501.310680
   5.092218   501.308190
   5.093819   501.305726
   5.095419   501.303287
   5.097019   501.300873
   5.098620   501.298484
   5.100220   501.296120
   5.101820   501.293779
   5.103421   501.291463
   5.105021   501.289170
   5.106621   501.286900
   5.108222   501.284653
   5.109822   501.282428
   5.111422   501.280226
   5.113023   501.278046
   5.114623   501.275887
   5.116223   501.273750
   5.117824   501.271634
   5.119424   501.269538
   5.121024   501.267463
   5.122625   501.265409
   5.124225   501.263374
   5.125825   501.261359
   5.127425   501.259364
   5.129026   501.257387
   5.130626   501.255430
   5.132226   501.253491
   5.133827   501.251570
   5.135427   501.249668
   5.137027   501.247784
   5.138628   501.245917
   5.140228   501.244068
   5.141828   501.242236
   5.143429   501.240421
   5.145029   501.238622
   5.146629   501.236840
   5.148230   501.235075
   5.149830   501.233325
   5.151430   501.231591
   5.153031   501.229873
   5.154631   501.228171
   5.156231   501.226483
   5.157832   501.224811
   5.159432   501.223153
   5.161032   501.221510
   5.162633   501.219881
   5.164233   501.218266
   5.165833   501.216666
   5.167433   501.215079
   5.169034   501.213506
   5.170634   501.211946
   5.172234   501.210400
   5.173835   501.208866
   5.175435   501.207346
   5.177035   501.205838
   5.178636   501.204343
   5.180236   501.202860
   5.181836   501.201390
   5.183437   501.199931
   5.185037   501.198484
   5.186637   501.197049
   5.188238   501.195626
   5.189838   501.194214
   5.191438   501.192813
   5.193039   501.191423
   5.194639   501.190045
   5.196239   501.188677
   5.197840   501.187319
   5.199440   501.185972
   5.201040   501.184636
   5.202641   501.183310
   5.204241   501.181994
   5.205841   501.180687
   5.207441   501.179391
   5.209042   501.178104
   5.210642   501.176827
   5.212242   501.175559
   5.213843   501.174300
   5.215443   501.173051
   5.217043   501.171811
   5.218644   501.170579
   5.220244   501.169356
   5.221844   501.168142
   5.223445   501.166937
   5.225045   501.165740
   5.226645   501.164551
   5.228246   501.163370
   5.229846   501.162198
   5.231446   501.161034
   5.233047   501.159877
   5.234647   501.158728
   5.236247   501.157587
   5.237848   501.156453
   5.239448   501.155327
   5.241048   501.154208
   5.242649   501.153097
   5.244249   501.151992
   5.245849   501.150895
   5.247449   501.149804
   5.249050   501.148721
   5.250650   501.147644
   5.252250   501.146574
   5.253851   501.145510
   5.255451   501.144453
   5.257051   501.143403
   5.258652   501.142358
   5.260252   501.141320
   5.261852   501.140288
   5.263453   501.139263
   5.265053   501.138243
   5.266653   501.137229
   5.268254   501.136221
   5.269854   501.135218
   5.271454   501.134222
   5.273055   501.133231
   5.274655   501.132245
   5.276255   501.131265
   5.277856   501.130290
   5.279456   501.129321
   5.281056   501.128357
   5.282657   501.127398
   5.284257   501.126444
   5.285857   501.125495
   5.287457   501.124551
   5.289058   501.123612
   5.290658   501.122678
   5.292258   501.121748
   5.293859   501.120823
   5.295459   501.119903
   5.297059   501.118988
   5.298660   501.118077
   5.300260   501.117170
   5.301860   501.116268
   5.303461   501.115370
   5.305061   501.114476
   5.306661   501.113587
   5.308262   501.112702
   5.309862   501.111821
   5.311462   501.110944
   5.313063   501.110071
   5.314663   501.109201
   5.316263   501.108336
   5.317864   501.107475
   5.319464   501.106617
   5.321064   501.105764
   5.322665   501.104914
   5.324265   501.104067
   5.325865   501.103224
   5.327465   501.102385
   5.329066   501.101549
   5.330666   501.100717
   5.332266   501.099888
   5.333867   501.099063
   5.335467   501.098240
   5.337067   501.097422
   5.338668   501.096606
   5.340268   501.095793
   5.341868   501.094984
   5.343469   501.094178
   5.345069   501.093375
   5.346669   501.092575
   5.348270   501.091778
   5.349870   501.090984
   5.351470   501.090193
   5.353071   501.089405
   5.354671   501.088619
   5.356271   501.087837
   5.357872   501.087057
   5.359472   501.086280
   5.361072   501.085506
   5.362673   501.084734
   5.364273   501.083965
   5.365873   501.083199
   5.367473   501.082435
   5.369074   501.081674
   5.370674   501.080915
   5.372274   501.080159
   5.373875   501.079405
   5.375475   501.078654
   5.377075   501.077905
   5.378676   501.077159
   5.380276   501.076414
   5.381876   501.075673
   5.383477   501.074933
   5.385077   501.074196
   5.386677   501.073460
   5.388278   501.072728
   5.389878   501.071997
   5.391478   501.071268
   5.393079   501.070542
   5.394679   501.069817
   5.396279   501.069095
   5.397880   501.068375
   5.399480   501.067657
   5.401080   501.066940
   5.402681   501.066226
   5.404281   501.065514
   5.405881   501.064803
   5.407481   501.064095
   5.409082   501.063388
   5.410682   501.062684
   5.412282   501.061981
   5.413883   501.061280
   5.415483   501.060581
   5.417083   501.059883
   5.418684   501.059187
   5.420284   501.058494
   5.421884   501.057801
   5.423485   501.057111
   5.425085   501.056422
   5.426685   501.055735
   5.428286   501.055049
   5.429886   501.054365
   5.431486   501.053683
   5.433087   501.053002
   5.434687   501.052323
   5.436287   501.051646
   5.437888   501.050970
   5.439488   501.050295
   5.441088   501.049622
   5.442689   501.048951
   5.444289   501.048281
   5.445889   501.047612
   5.447489   501.046945
   5.449090   501.046279
   5.450690   501.045615
   5.452290   501.044952
   5.453891   501.044290
   5.455491   501.043630
   5.457091   501.042972
   5.458692   501.042314
   5.460292   501.041658
   5.461892   501.041003
   5.463493   501.040350
   5.465093   501.039698
   5.466693   501.039047
   5.468294   501.038397
   5.469894   501.037749
   5.471494   501.037101
   5.473095   501.036455
   5.474695   501.035811
   5.476295   501.035167
   5.477896   501.034525
   5.479496   501.033884
   5.481096   501.033244
   5.482697   501.032605
   5.484297   501.031967
   5.485897   501.031331
   5.487497   501.030695
   5.489098   501.030061
   5.490698   501.029428
   5.492298   501.028796
   5.493899   501.028165
   5.495499   501.027535
   5.497099   501.026906
   5.498700   501.026278
   5.500300   501.025651
   5.501900   501.025025
   5.503501   501.024401
   5.505101   501.023777
   5.506701   501.023154
   5.508302   501.022533
   5.509902   501.021912
   5.511502   501.021292
   5.513103   501.020673
   5.514703   501.020056
   5.516303   501.019439
   5.517904   501.018823
   5.519504   501.018208
   5.521104   501.017594
   5.522705   501.016981
   5.524305   501.016369
   5.525905   501.015758
   5.527506   501.015147
   5.529106   501.014538
   5.530706   501.013929
   5.532306   501.013322
   5.533907   501.012715
   5.535507   501.012109
   5.537107   501.011504
   5.538708   501.010900
   5.540308   501.010297
   5.541908   501.009694
   5.543509   501.009093
   5.545109   501.008492
   5.546709   501.007892
   5.548310   501.007293
   5.549910   501.006694
   5.551510   501.006097
   5.553111   501.005500
   5.554711   501.004904
   5.556311   501.004309
   5.557912   501.003715
   5.559512   501.003121
   5.561112   501.002528
   5.562713   501.001936
   5.564313   501.001345
   5.565913   501.000754
   5.567514   501.000165
   5.569114   500.999576
   5.570714   500.998987
   5.572314   500.998400
   5.573915   500.997813
   5.575515   500.997227
   5.577115   500.996642
   5.578716   500.996057
   5.580316   500.995473
   5.581916   500.994890
   5.583517   500.994308
   5.585117   500.993726
   5.586717   500.993145
   5.588318   500.992565
   5.589918   500.991985
   5.591518   500.991406
   5.593119   500.990828
   5.594719   500.990250
   5.596319   500.989673
   5.597920   500.989097
   5.599520   500.988521
   5.601120   500.987946
   5.602721   500.987372
   5.604321   500.986798
   5.605921   500.986225
   5.607522   500.985653
   5.609122   500.985082
   5.610722   500.984511
   5.612322   500.983940
   5.613923   500.983370
   5.615523   500.982801
   5.617123   500.982233
   5.618724   500.981665
   5.620324   500.981098
   5.621924   500.980531
   5.623525   500.979965
   5.625125   500.979400
   5.626725   500.978835
   5.628326   500.978271
   5.629926   500.977707
   5.631526   500.977144
   5.633127   500.976582
   5.634727   500.976020
   5.636327   500.975459
   5.637928   500.974899
   5.639528   500.974339
   5.641128   500.973779
   5.642729   500.973221
   5.644329   500.972662
   5.645929   500.972105
   5.647530   500.971548
   5.649130   500.970991
   5.650730   500.970435
   5.652330   500.969880
   5.653931   500.969325
   5.655531   500.968771
   5.657131   500.968218
   5.658732   500.967664
   5.660332   500.967112
   5.661932   500.966560
   5.663533   500.966009
   5.665133   500.965458
   5.666733   500.964908
   5.668334   500.964358
   5.669934   500.963809
   5.671534   500.963260
   5.673135   500.962712
   5.674735   500.962164
   5.676335   500.961617
   5.677936   500.961071
   5.679536   500.960525
   5.681136   500.959979
   5.682737   500.959434
   5.684337   500.958890
   5.685937   500.958346
   5.687538   500.957803
   5.689138   500.957260
   5.690738   500.956718
   5.692338   500.956176
   5.693939   500.955635
   5.695539   500.955094
   5.697139   500.954554
   5.698740   500.954014
   5.700340   500.953475
   5.701940   500.952937
   5.703541   500.952398
   5.705141   500.951861
   5.706741   500.951324
   5.708342   500.950787
   5.709942   500.950251
   5.711542   500.949715
   5.713143   500.949180
   5.714743   500.948646
   5.716343   500.948111
   5.717944   500.947578
   5.719544   500.947045
   5.721144   500.946512
   5.722745   500.945980
   5.724345   500.945448
   5.725945   500.944917
   5.727546   500.944386
   5.729146   500.943856
   5.730746   500.943326
   5.732346   500.942797
   5.733947   500.942269
   5.735547   500.941740
   5.737147   500.941212
   5.738748   500.940685
   5.740348   500.940158
   5.741948   500.939632
   5.743549   500.939106
   5.745149   500.938581
   5.746749   500.938056
   5.748350   500.937531
   5.749950   500.937007
   5.751550   500.936484
   5.753151   500.935961
   5.754751   500.935438
   5.756351   500.934916
   5.757952   500.934394
   5.759552   500.933873
   5.761152   500.933353
   5.762753   500.932832
   5.764353   500.932313
   5.765953   500.931793
   5.767554   500.931274
   5.769154   500.930756
   5.770754   500.930238
   5.772354   500.929720
   5.773955   500.929203
   5.775555   500.928687
   5.777155   500.928171
   5.778756   500.927655
   5.780356   500.927140
   5.781956   500.926625
   5.783557   500.926111
   5.785157   500.925597
   5.786757   500.925083
   5.788358   500.924570
   5.789958   500.924058
   5.791558   500.923546
   5.793159   500.923034
   5.794759   500.922523
   5.796359   500.922012
   5.797960   500.921502
   5.799560   500.920992
   5.801160   500.920483
   5.802761   500.919974
   5.804361   500.919465
   5.805961   500.918957
   5.807562   500.918449
   5.809162   500.917942
   5.810762   500.917435
   5.812362   500.916929
   5.813963   500.916423
   5.815563   500.915917
   5.817163   500.915412
   5.818764   500.914908
   5.820364   500.914403
   5.821964   500.913900
   5.823565   500.913396
   5.825165   500.912893
   5.826765   500.912391
   5.828366   500.911889
   5.829966   500.911387
   5.831566   500.910886
   5.833167   500.910385
   5.834767   500.909885
   5.836367   500.909385
   5.837968   500.908885
   5.839568   500.908386
   5.841168   500.907888
   5.842769   500.907389
   5.844369   500.906891
   5.845969   500.906394
   5.847570   500.905897
   5.849170   500.905400
   5.850770   500.904904
   5.852370   500.904409
   5.853971   500.903913
   5.855571   500.903418
   5.857171   500.902924
   5.858772   500.902430
   5.860372   500.901936
   5.861972   500.901443
   5.863573   500.900950
   5.865173   500.900458
   5.866773   500.899966
   5.868374   500.899474
   5.869974   500.898983
   5.871574   500.898492
   5.873175   500.898002
   5.874775   500.897512
   5.876375   500.897022
   5.877976   500.896533
   5.879576   500.896044
   5.881176   500.895556
   5.882777   500.895068
   5.884377   500.894580
   5.885977   500.894093
   5.887578   500.893607
   5.889178   500.893120
   5.890778   500.892634
   5.892378   500.892149
   5.893979   500.891664
   5.895579   500.891179
   5.897179   500.890695
   5.898780   500.890211
   5.900380   500.889727
   5.901980   500.889244
   5.903581   500.888762
   5.905181   500.888279
   5.906781   500.887797
   5.908382   500.887316
   5.909982   500.886835
   5.911582   500.886354
   5.913183   500.885874
   5.914783   500.885394
   5.916383   500.884914
   5.917984   500.884435
   5.919584   500.883956
   5.921184   500.883478
   5.922785   500.883000
   5.924385   500.882523
   5.925985   500.882045
   5.927586   500.881569
   5.929186   500.881092
   5.930786   500.880616
   5.932386   500.880141
   5.933987   500.879665
   5.935587   500.879190
   5.937187   500.878716
   5.938788   500.878242
   5.940388   500.877768
   5.941988   500.877295
   5.943589   500.876822
   5.945189   500.876350
   5.946789   500.875877
   5.948390   500.875406
   5.949990   500.874934
   5.951590   500.874463
   5.953191   500.873993
   5.954791   500.873523
   5.956391   500.873053
   5.957992   500.872583
   5.959592   500.872114
   5.961192   500.871645
   5.962793   500.871177
   5.964393   500.870709
   5.965993   500.870242
   5.967594   500.869775
   5.969194   500.869308
   5.970794   500.868841
   5.972394   500.868375
   5.973995   500.867910
   5.975595   500.867444
   5.977195   500.866979
   5.978796   500.866515
   5.980396   500.866051
   5.981996   500.865587
   5.983597   500.865124
   5.985197   500.864661
   5.986797   500.864198
   5.988398   500.863736
   5.989998   500.863274
   5.991598   500.862812
   5.993199   500.862351
   5.994799   500.861890
   5.996399   500.861430
   5.998000   500.860970
   5.999600   500.860510
   6.001200   500.860051
   6.002801   500.859592
   6.004401   500.859133
   6.006001   500.858675
   6.007602   500.858217
   6.009202   500.857760
   6.010802   500.857302
   6.012402   500.856846
   6.014003   500.856389
   6.015603   500.855933
   6.017203   500.855478
   6.018804   500.855022
   6.020404   500.854568
   6.022004   500.854113
   6.023605   500.853659
   6.025205   500.853205
   6.026805   500.852752
   6.028406   500.852298
   6.030006   500.851846
   6.031606   500.851393
   6.033207   500.850941
   6.034807   500.850490
   6.036407   500.850038
   6.038008   500.849587
   6.039608   500.849137
   6.041208   500.848687
   6.042809   500.848237
   6.044409   500.847787
   6.046009   500.847338
   6.047610   500.846889
   6.049210   500.846441
   6.050810   500.845993
   6.052410   500.845545
   6.054011   500.845098
   6.055611   500.844651
   6.057211   500.844204
   6.058812   500.843758
   6.060412   500.843312
   6.062012   500.842866
   6.063613   500.842421
   6.065213   500.841976
   6.066813   500.841532
   6.068414   500.841088
   6.070014   500.840644
   6.071614   500.840200
   6.073215   500.839757
   6.074815   500.839315
   6.076415   500.838872
   6.078016   500.838430
   6.079616   500.837988
   6.081216   500.837547
   6.082817   500.837106
   6.084417   500.836665
   6.086017   500.836225
   6.087618   500.835785
   6.089218   500.835346
   6.090818   500.834906
   6.092418   500.834467
   6.094019   500.834029
   6.095619   500.833591
   6.097219   500.833153
   6.098820   500.832715
   6.100420   500.832278
   6.102020   500.831841
   6.103621   500.831405
   6.105221   500.830968
   6.106821   500.830533
   6.108422   500.830097
   6.110022   500.829662
   6.111622   500.829227
   6.113223   500.828793
   6.114823   500.828359
   6.116423   500.827925
   6.118024   500.827492
   6.119624   500.827058
   6.121224   500.826626
   6.122825   500.826193
   6.124425   500.825761
   6.126025   500.825330
   6.127626   500.824898
   6.129226   500.824467
   6.130826   500.824036
   6.132426   500.823606
   6.134027   500.823176
   6.135627   500.822746
   6.137227   500.822317
   6.138828   500.821888
   6.140428   500.821459
   6.142028   500.821031
   6.143629   500.820603
   6.145229   500.820175
   6.146829   500.819748
   6.148430   500.819321
   6.150030   500.818894
   6.151630   500.818468
   6.153231   500.818042
   6.154831   500.817616
   6.156431   500.817191
   6.158032   500.816766
   6.159632   500.816341
   6.161232   500.815917
   6.162833   500.815493
   6.164433   500.815069
   6.166033   500.814646
   6.167634   500.814223
   6.169234   500.813800
   6.170834   500.813378
   6.172434   500.812956
   6.174035   500.812534
   6.175635   500.812113
   6.177235   500.811692
   6.178836   500.811271
   6.180436   500.810851
   6.182036   500.810430
   6.183637   500.810011
   6.185237   500.809591
   6.186837   500.809172
   6.188438   500.808753
   6.190038   500.808335
   6.191638   500.807917
   6.193239   500.807499
   6.194839   500.807082
   6.196439   500.806665
   6.198040   500.806248
   6.199640   500.805831
   6.201240   500.805415
   6.202841   500.804999
   6.204441   500.804584
   6.206041   500.804168
   6.207642   500.803754
   6.209242   500.803339
   6.210842   500.802925
   6.212442   500.802511
   6.214043   500.802097
   6.215643   500.801684
   6.217243   500.801271
   6.218844   500.800858
   6.220444   500.800446
   6.222044   500.800034
   6.223645   500.799622
   6.225245   500.799211
   6.226845   500.798800
   6.228446   500.798389
   6.230046   500.797979
   6.231646   500.797569
   6.233247   500.797159
   6.234847   500.796749
   6.236447   500.796340
   6.238048   500.795931
   6.239648   500.795523
   6.241248   500.795115
   6.242849   500.794707
   6.244449   500.794299
   6.246049   500.793892
   6.247650   500.793485
   6.249250   500.793078
   6.250850   500.792672
   6.252450   500.792266
   6.254051   500.791860
   6.255651   500.791455
   6.257251   500.791050
   6.258852   500.790645
   6.260452   500.790241
   6.262052   500.789837
   6.263653   500.789433
   6.265253   500.789029
   6.266853   500.788626
   6.268454   500.788223
   6.270054   500.787820
   6.271654   500.787418
   6.273255   500.787016
   6.274855   500.786614
   6.276455   500.786213
   6.278056   500.785812
   6.279656   500.785411
   6.281256   500.785011
   6.282857   500.784611
   6.284457   500.784211
   6.286057   500.783811
   6.287658   500.783412
   6.289258   500.783013
   6.290858   500.782615
   6.292458   500.782216
   6.294059   500.781818
   6.295659   500.781421
   6.297259   500.781023
   6.298860   500.780626
   6.300460   500.780229
   6.302060   500.779833
   6.303661   500.779437
   6.305261   500.779041
   6.306861   500.778645
   6.308462   500.778250
   6.310062   500.777855
   6.311662   500.777460
   6.313263   500.777066
   6.314863   500.776672
   6.316463   500.776278
   6.318064   500.775884
   6.319664   500.775491
   6.321264   500.775098
   6.322865   500.774706
   6.324465   500.774314
   6.326065   500.773922
   6.327666   500.773530
   6.329266   500.773138
   6.330866   500.772747
   6.332466   500.772357
   6.334067   500.771966
   6.335667   500.771576
   6.337267   500.771186
   6.338868   500.770796
   6.340468   500.770407
   6.342068   500.770018
   6.343669   500.769629
   6.345269   500.769241
   6.346869   500.768853
   6.348470   500.768465
   6.350070   500.768077
   6.351670   500.767690
   6.353271   500.767303
   6.354871   500.766916
   6.356471   500.766530
   6.358072   500.766144
   6.359672   500.765758
   6.361272   500.765373
   6.362873   500.764987
   6.364473   500.764602
   6.366073   500.764218
   6.367674   500.763833
   6.369274   500.763449
   6.370874   500.763066
   6.372474   500.762682
   6.374075   500.762299
   6.375675   500.761916
   6.377275   500.761533
   6.378876   500.761151
   6.380476   500.760769
   6.382076   500.760387
   6.383677   500.760006
   6.385277   500.759625
   6.386877   500.759244
   6.388478   500.758863
   6.390078   500.758483
   6.391678   500.758103
   6.393279   500.757723
   6.394879   500.757344
   6.396479   500.756965
   6.398080   500.756586
   6.399680   500.756207
   6.401280   500.755829
   6.402881   500.755451
   6.404481   500.755073
   6.406081   500.754696
   6.407682   500.754318
   6.409282   500.753941
   6.410882   500.753565
   6.412482   500.753188
   6.414083   500.752812
   6.415683   500.752437
   6.417283   500.752061
   6.418884   500.751686
   6.420484   500.751311
   6.422084   500.750936
   6.423685   500.750562
   6.425285   500.750188
   6.426885   500.749814
   6.428486   500.749441
   6.430086   500.749067
   6.431686   500.748694
   6.433287   500.748322
   6.434887   500.747949
   6.436487   500.747577
   6.438088   500.747205
   6.439688   500.746834
   6.441288   500.746462
   6.442889   500.746091
   6.444489   500.745721
   6.446089   500.745350
   6.447690   500.744980
   6.449290   500.744610
   6.450890   500.744240
   6.452490   500.743871
   6.454091   500.743502
   6.455691   500.743133
   6.457291   500.742764
   6.458892   500.742396
   6.460492   500.742028
   6.462092   500.741660
   6.463693   500.741293
   6.465293   500.740926
   6.466893   500.740559
   6.468494   500.740192
   6.470094   500.739826
   6.471694   500.739460
   6.473295   500.739094
   6.474895   500.738729
   6.476495   500.738363
   6.478096   500.737998
   6.479696   500.737633
   6.481296   500.737269
   6.482897   500.736905
   6.484497   500.736541
   6.486097   500.736177
   6.487698   500.735814
   6.489298   500.735451
   6.490898   500.735088
   6.492498   500.734725
   6.494099   500.734363
   6.495699   500.734001
   6.497299   500.733639
   6.498900   500.733278
   6.500500   500.732916
   6.502100   500.732555
   6.503701   500.732195
   6.505301   500.731834
   6.506901   500.731474
   6.508502   500.731114
   6.510102   500.730755
   6.511702   500.730395
   6.513303   500.730036
   6.514903   500.729677
   6.516503   500.729319
   6.518104   500.728960
   6.519704   500.728602
   6.521304   500.728245
   6.522905   500.727887
   6.524505   500.727530
   6.526105   500.727173
   6.527706   500.726816
   6.529306   500.726460
   6.530906   500.726103
   6.532507   500.725747
   6.534107   500.725392
   6.535707   500.725036
   6.537307   500.724681
   6.538908   500.724326
   6.540508   500.723972
   6.542108   500.723617
   6.543709   500.723263
   6.545309   500.722909
   6.546909   500.722556
   6.548510   500.722202
   6.550110   500.721849
   6.551710   500.721496
   6.553311   500.721144
   6.554911   500.720791
   6.556511   500.720439
   6.558112   500.720088
   6.559712   500.719736
   6.561312   500.719385
   6.562913   500.719034
   6.564513   500.718683
   6.566113   500.718332
   6.567714   500.717982
   6.569314   500.717632
   6.570914   500.717282
   6.572515   500.716933
   6.574115   500.716584
   6.575715   500.716235
   6.577315   500.715886
   6.578916   500.715538
   6.580516   500.715189
   6.582116   500.714841
   6.583717   500.714494
   6.585317   500.714146
   6.586917   500.713799
   6.588518   500.713452
   6.590118   500.713105
   6.591718   500.712759
   6.593319   500.712413
   6.594919   500.712067
   6.596519   500.711721
   6.598120   500.711376
   6.599720   500.711031
   6.601320   500.710686
   6.602921   500.710341
   6.604521   500.709997
   6.606121   500.709652
   6.607722   500.709309
   6.609322   500.708965
   6.610922   500.708621
   6.612523   500.708278
   6.614123   500.707935
   6.615723   500.707593
   6.617323   500.707250
   6.618924   500.706908
   6.620524   500.706566
   6.622124   500.706224
   6.623725   500.705883
   6.625325   500.705542
   6.626925   500.705201
   6.628526   500.704860
   6.630126   500.704520
   6.631726   500.704180
   6.633327   500.703840
   6.634927   500.703500
   6.636527   500.703160
   6.638128   500.702821
   6.639728   500.702482
   6.641328   500.702144
   6.642929   500.701805
   6.644529   500.701467
   6.646129   500.701129
   6.647730   500.700791
   6.649330   500.700454
   6.650930   500.700116
   6.652531   500.699779
   6.654131   500.699443
   6.655731   500.699106
   6.657331   500.698770
   6.658932   500.698434
   6.660532   500.698098
   6.662132   500.697762
   6.663733   500.697427
   6.665333   500.697092
   6.666933   500.696757
   6.668534   500.696423
   6.670134   500.696088
   6.671734   500.695754
   6.673335   500.695420
   6.674935   500.695087
   6.676535   500.694753
   6.678136   500.694420
   6.679736   500.694087
   6.681336   500.693755
   6.682937   500.693422
   6.684537   500.693090
   6.686137   500.692758
   6.687738   500.692426
   6.689338   500.692095
   6.690938   500.691764
   6.692539   500.691433
   6.694139   500.691102
   6.695739   500.690771
   6.697339   500.690441
   6.698940   500.690111
   6.700540   500.689781
   6.702140   500.689452
   6.703741   500.689122
   6.705341   500.688793
   6.706941   500.688464
   6.708542   500.688136
   6.710142   500.687807
   6.711742   500.687479
   6.713343   500.687151
   6.714943   500.686823
   6.716543   500.686496
   6.718144   500.686169
   6.719744   500.685842
   6.721344   500.685515
   6.722945   500.685188
   6.724545   500.684862
   6.726145   500.684536
   6.727746   500.684210
   6.729346   500.683885
   6.730946   500.683559
   6.732547   500.683234
   6.734147   500.682909
   6.735747   500.682585
   6.737347   500.682260
   6.738948   500.681936
   6.740548   500.681612
   6.742148   500.681288
   6.743749   500.680965
   6.745349   500.680642
   6.746949   500.680319
   6.748550   500.679996
   6.750150   500.679673
   6.751750   500.679351
   6.753351   500.679029
   6.754951   500.678707
   6.756551   500.678385
   6.758152   500.678064
   6.759752   500.677742
   6.761352   500.677421
   6.762953   500.677101
   6.764553   500.676780
   6.766153   500.676460
   6.767754   500.676140
   6.769354   500.675820
   6.770954   500.675500
   6.772555   500.675181
   6.774155   500.674862
   6.775755   500.674543
   6.777355   500.674224
   6.778956   500.673906
   6.780556   500.673587
   6.782156   500.673269
   6.783757   500.672951
   6.785357   500.672634
   6.786957   500.672317
   6.788558   500.671999
   6.790158   500.671682
   6.791758   500.671366
   6.793359   500.671049
   6.794959   500.670733
   6.796559   500.670417
   6.798160   500.670101
   6.799760   500.669786
   6.801360   500.669470
   6.802961   500.669155
   6.804561   500.668840
   6.806161   500.668526
   6.807762   500.668211
   6.809362   500.667897
   6.810962   500.667583
   6.812563   500.667269
   6.814163   500.666956
   6.815763   500.666642
   6.817363   500.666329
   6.818964   500.666016
   6.820564   500.665703
   6.822164   500.665391
   6.823765   500.665079
   6.825365   500.664767
   6.826965   500.664455
   6.828566   500.664143
   6.830166   500.663832
   6.831766   500.663521
   6.833367   500.663210
   6.834967   500.662899
   6.836567   500.662589
   6.838168   500.662278
   6.839768   500.661968
   6.841368   500.661658
   6.842969   500.661349
   6.844569   500.661039
   6.846169   500.660730
   6.847770   500.660421
   6.849370   500.660112
   6.850970   500.659804
   6.852571   500.659496
   6.854171   500.659188
   6.855771   500.658880
   6.857371   500.658572
   6.858972   500.658264
   6.860572   500.657957
   6.862172   500.657650
   6.863773   500.657343
   6.865373   500.657037
   6.866973   500.656730
   6.868574   500.656424
   6.870174   500.656118
   6.871774   500.655813
   6.873375   500.655507
   6.874975   500.655202
   6.876575   500.654897
   6.878176   500.654592
   6.879776   500.654287
   6.881376   500.653983
   6.882977   500.653678
   6.884577   500.653374
   6.886177   500.653070
   6.887778   500.652767
   6.889378   500.652463
   6.890978   500.652160
   6.892579   500.651857
   6.894179   500.651554
   6.895779   500.651252
   6.897379   500.650950
   6.898980   500.650647
   6.900580   500.650345
   6.902180   500.650044
   6.903781   500.649742
   6.905381   500.649441
   6.906981   500.649140
   6.908582   500.648839
   6.910182   500.648538
   6.911782   500.648238
   6.913383   500.647938
   6.914983   500.647638
   6.916583   500.647338
   6.918184   500.647038
   6.919784   500.646739
   6.921384   500.646439
   6.922985   500.646140
   6.924585   500.645842
   6.926185   500.645543
   6.927786   500.645245
   6.929386   500.644947
   6.930986   500.644649
   6.932587   500.644351
   6.934187   500.644053
   6.935787   500.643756
   6.937387   500.643459
   6.938988   500.643162
   6.940588   500.642865
   6.942188   500.642569
   6.943789   500.642272
   6.945389   500.641976
   6.946989   500.641680
   6.948590   500.641384
   6.950190   500.641089
   6.951790   500.640794
   6.953391   500.640499
   6.954991   500.640204
   6.956591   500.639909
   6.958192   500.639615
   6.959792   500.639320
   6.961392   500.639026
   6.962993   500.638732
   6.964593   500.638439
   6.966193   500.638145
   6.967794   500.637852
   6.969394   500.637559
   6.970994   500.637266
   6.972595   500.636973
   6.974195   500.636681
   6.975795   500.636389
   6.977395   500.636096
   6.978996   500.635805
   6.980596   500.635513
   6.982196   500.635222
   6.983797   500.634930
   6.985397   500.634639
   6.986997   500.634348
   6.988598   500.634058
   6.990198   500.633767
   6.991798   500.633477
   6.993399   500.633187
   6.994999   500.632897
   6.996599   500.632607
   6.998200   500.632318
   6.999800   500.632029
   7.001400   500.631740
   7.003001   500.631451
   7.004601   500.631162
   7.006201   500.630874
   7.007802   500.630585
   7.009402   500.630297
   7.011002   500.630009
   7.012603   500.629722
   7.014203   500.629434
   7.015803   500.629147
   7.017403   500.628860
   7.019004   500.628573
   7.020604   500.628286
   7.022204   500.628000
   7.023805   500.627714
   7.025405   500.627427
   7.027005   500.627142
   7.028606   500.626856
   7.030206   500.626570
   7.031806   500.626285
   7.033407   500.626000
   7.035007   500.625715
   7.036607   500.625430
   7.038208   500.625146
   7.039808   500.624861
   7.041408   500.624577
   7.043009   500.624293
   7.044609   500.624009
   7.046209   500.623726
   7.047810   500.623442
   7.049410   500.623159
   7.051010   500.622876
   7.052611   500.622593
   7.054211   500.622311
   7.055811   500.622028
   7.057411   500.621746
   7.059012   500.621464
   7.060612   500.621182
   7.062212   500.620901
   7.063813   500.620619
   7.065413   500.620338
   7.067013   500.620057
   7.068614   500.619776
   7.070214   500.619495
   7.071814   500.619215
   7.073415   500.618934
   7.075015   500.618654
   7.076615   500.618374
   7.078216   500.618095
   7.079816   500.617815
   7.081416   500.617536
   7.083017   500.617257
   7.084617   500.616978
   7.086217   500.616699
   7.087818   500.616420
   7.089418   500.616142
   7.091018   500.615864
   7.092619   500.615585
   7.094219   500.615308
   7.095819   500.615030
   7.097419   500.614752
   7.099020   500.614475
   7.100620   500.614198
   7.102220   500.613921
   7.103821   500.613644
   7.105421   500.613368
   7.107021   500.613092
   7.108622   500.612815
   7.110222   500.612539
   7.111822   500.612264
   7.113423   500.611988
   7.115023   500.611713
   7.116623   500.611437
   7.118224   500.611162
   7.119824   500.610887
   7.121424   500.610613
   7.123025   500.610338
   7.124625   500.610064
   7.126225   500.609790
   7.127826   500.609516
   7.129426   500.609242
   7.131026   500.608969
   7.132627   500.608695
   7.134227   500.608422
   7.135827   500.608149
   7.137427   500.607876
   7.139028   500.607603
   7.140628   500.607331
   7.142228   500.607059
   7.143829   500.606787
   7.145429   500.606515
   7.147029   500.606243
   7.148630   500.605971
   7.150230   500.605700
   7.151830   500.605429
   7.153431   500.605158
   7.155031   500.604887
   7.156631   500.604616
   7.158232   500.604346
   7.159832   500.604076
   7.161432   500.603806
   7.163033   500.603536
   7.164633   500.603266
   7.166233   500.602996
   7.167834   500.602727
   7.169434   500.602458
   7.171034   500.602189
   7.172635   500.601920
   7.174235   500.601651
   7.175835   500.601383
   7.177435   500.601115
   7.179036   500.600846
   7.180636   500.600579
   7.182236   500.600311
   7.183837   500.600043
   7.185437   500.599776
   7.187037   500.599509
   7.188638   500.599242
   7.190238   500.598975
   7.191838   500.598708
   7.193439   500.598441
   7.195039   500.598175
   7.196639   500.597909
   7.198240   500.597643
   7.199840   500.597377
   7.201440   500.597112
   7.203041   500.596846
   7.204641   500.596581
   7.206241   500.596316
   7.207842   500.596051
   7.209442   500.595786
   7.211042   500.595522
   7.212643   500.595257
   7.214243   500.594993
   7.215843   500.594729
   7.217443   500.594465
   7.219044   500.594202
   7.220644   500.593938
   7.222244   500.593675
   7.223845   500.593412
   7.225445   500.593149
   7.227045   500.592886
   7.228646   500.592623
   7.230246   500.592361
   7.231846   500.592098
   7.233447   500.591836
   7.235047   500.591574
   7.236647   500.591313
   7.238248   500.591051
   7.239848   500.590790
   7.241448   500.590528
   7.243049   500.590267
   7.244649   500.590006
   7.246249   500.589746
   7.247850   500.589485
   7.249450   500.589225
   7.251050   500.588965
   7.252651   500.588705
   7.254251   500.588445
   7.255851   500.588185
   7.257451   500.587926
   7.259052   500.587666
   7.260652   500.587407
   7.262252   500.587148
   7.263853   500.586889
   7.265453   500.586631
   7.267053   500.586372
   7.268654   500.586114
   7.270254   500.585856
   7.271854   500.585598
   7.273455   500.585340
   7.275055   500.585082
   7.276655   500.584825
   7.278256   500.584568
   7.279856   500.584310
   7.281456   500.584053
   7.283057   500.583797
   7.284657   500.583540
   7.286257   500.583284
   7.287858   500.583027
   7.289458   500.582771
   7.291058   500.582515
   7.292659   500.582260
   7.294259   500.582004
   7.295859   500.581749
   7.297459   500.581493
   7.299060   500.581238
   7.300660   500.580983
   7.302260   500.580728
   7.303861   500.580474
   7.305461   500.580219
   7.307061   500.579965
   7.308662   500.579711
   7.310262   500.579457
   7.311862   500.579203
   7.313463   500.578950
   7.315063   500.578696
   7.316663   500.578443
   7.318264   500.578190
   7.319864   500.577937
   7.321464   500.577684
   7.323065   500.577432
   7.324665   500.577179
   7.326265   500.576927
   7.327866   500.576675
   7.329466   500.576423
   7.331066   500.576171
   7.332667   500.575920
   7.334267   500.575668
   7.335867   500.575417
   7.337467   500.575166
   7.339068   500.574915
   7.340668   500.574664
   7.342268   500.574414
   7.343869   500.574163
   7.345469   500.573913
   7.347069   500.573663
   7.348670   500.573413
   7.350270   500.573163
   7.351870   500.572913
   7.353471   500.572664
   7.355071   500.572415
   7.356671   500.572165
   7.358272   500.571917
   7.359872   500.571668
   7.361472   500.571419
   7.363073   500.571171
   7.364673   500.570922
   7.366273   500.570674
   7.367874   500.570426
   7.369474   500.570178
   7.371074   500.569931
   7.372675   500.569683
   7.374275   500.569436
   7.375875   500.569188
   7.377475   500.568941
   7.379076   500.568695
   7.380676   500.568448
   7.382276   500.568201
   7.383877   500.567955
   7.385477   500.567709
   7.387077   500.567463
   7.388678   500.567217
   7.390278   500.566971
   7.391878   500.566725
   7.393479   500.566480
   7.395079   500.566235
   7.396679   500.565989
   7.398280   500.565745
   7.399880   500.565500
   7.401480   500.565255
   7.403081   500.565011
   7.404681   500.564766
   7.406281   500.564522
   7.407882   500.564278
   7.409482   500.564034
   7.411082   500.563791
   7.412683   500.563547
   7.414283   500.563304
   7.415883   500.563060
   7.417483   500.562817
   7.419084   500.562574
   7.420684   500.562332
   7.422284   500.562089
   7.423885   500.561847
   7.425485   500.561604
   7.427085   500.561362
   7.428686   500.561120
   7.430286   500.560879
   7.431886   500.560637
   7.433487   500.560395
   7.435087   500.560154
   7.436687   500.559913
   7.438288   500.559672
   7.439888   500.559431
   7.441488   500.559190
   7.443089   500.558950
   7.444689   500.558709
   7.446289   500.558469
   7.447890   500.558229
   7.449490   500.557989
   7.451090   500.557749
   7.452691   500.557510
   7.454291   500.557270
   7.455891   500.557031
   7.457491   500.556792
   7.459092   500.556553
   7.460692   500.556314
   7.462292   500.556075
   7.463893   500.555837
   7.465493   500.555598
   7.467093   500.555360
   7.468694   500.555122
   7.470294   500.554884
   7.471894   500.554646
   7.473495   500.554409
   7.475095   500.554171
   7.476695   500.553934
   7.478296   500.553697
   7.479896   500.553460
   7.481496   500.553223
   7.483097   500.552986
   7.484697   500.552749
   7.486297   500.552513
   7.487898   500.552277
   7.489498   500.552041
   7.491098   500.551805
   7.492699   500.551569
   7.494299   500.551333
   7.495899   500.551098
   7.497499   500.550862
   7.499100   500.550627
   7.500700   500.550392
   7.502300   500.550157
   7.503901   500.549922
   7.505501   500.549688
   7.507101   500.549453
   7.508702   500.549219
   7.510302   500.548985
   7.511902   500.548751
   7.513503   500.548517
   7.515103   500.548283
   7.516703   500.548050
   7.518304   500.547816
   7.519904   500.547583
   7.521504   500.547350
   7.523105   500.547117
   7.524705   500.546884
   7.526305   500.546652
   7.527906   500.546419
   7.529506   500.546187
   7.531106   500.545955
   7.532707   500.545722
   7.534307   500.545491
   7.535907   500.545259
   7.537508   500.545027
   7.539108   500.544796
   7.540708   500.544564
   7.542308   500.544333
   7.543909   500.544102
   7.545509   500.543871
   7.547109   500.543640
   7.548710   500.543410
   7.550310   500.543179
   7.551910   500.542949
   7.553511   500.542719
   7.555111   500.542489
   7.556711   500.542259
   7.558312   500.542029
   7.559912   500.541800
   7.561512   500.541570
   7.563113   500.541341
   7.564713   500.541112
   7.566313   500.540883
   7.567914   500.540654
   7.569514   500.540425
   7.571114   500.540197
   7.572715   500.539969
   7.574315   500.539740
   7.575915   500.539512
   7.577516   500.539284
   7.579116   500.539056
   7.580716   500.538829
   7.582316   500.538601
   7.583917   500.538374
   7.585517   500.538147
   7.587117   500.537919
   7.588718   500.537692
   7.590318   500.537466
   7.591918   500.537239
   7.593519   500.537012
   7.595119   500.536786
   7.596719   500.536560
   7.598320   500.536334
   7.599920   500.536108
   7.601520   500.535882
   7.603121   500.535656
   7.604721   500.535431
   7.606321   500.535205
   7.607922   500.534980
   7.609522   500.534755
   7.611122   500.534530
   7.612723   500.534305
   7.614323   500.534081
   7.615923   500.533856
   7.617524   500.533632
   7.619124   500.533407
   7.620724   500.533183
   7.622324   500.532959
   7.623925   500.532735
   7.625525   500.532512
   7.627125   500.532288
   7.628726   500.532065
   7.630326   500.531841
   7.631926   500.531618
   7.633527   500.531395
   7.635127   500.531173
   7.636727   500.530950
   7.638328   500.530727
   7.639928   500.530505
   7.641528   500.530283
   7.643129   500.530060
   7.644729   500.529838
   7.646329   500.529617
   7.647930   500.529395
   7.649530   500.529173
   7.651130   500.528952
   7.652731   500.528730
   7.654331   500.528509
   7.655931   500.528288
   7.657532   500.528067
   7.659132   500.527847
   7.660732   500.527626
   7.662332   500.527406
   7.663933   500.527185
   7.665533   500.526965
   7.667133   500.526745
   7.668734   500.526525
   7.670334   500.526305
   7.671934   500.526086
   7.673535   500.525866
   7.675135   500.525647
   7.676735   500.525427
   7.678336   500.525208
   7.679936   500.524989
   7.681536   500.524771
   7.683137   500.524552
   7.684737   500.524333
   7.686337   500.524115
   7.687938   500.523897
   7.689538   500.523678
   7.691138   500.523460
   7.692739   500.523243
   7.694339   500.523025
   7.695939   500.522807
   7.697540   500.522590
   7.699140   500.522372
   7.700740   500.522155
   7.702340   500.521938
   7.703941   500.521721
   7.705541   500.521504
   7.707141   500.521288
   7.708742   500.521071
   7.710342   500.520855
   7.711942   500.520639
   7.713543   500.520423
   7.715143   500.520207
   7.716743   500.519991
   7.718344   500.519775
   7.719944   500.519559
   7.721544   500.519344
   7.723145   500.519129
   7.724745   500.518914
   7.726345   500.518698
   7.727946   500.518484
   7.729546   500.518269
   7.731146   500.518054
   7.732747   500.517840
   7.734347   500.517625
   7.735947   500.517411
   7.737548   500.517197
   7.739148   500.516983
   7.740748   500.516769
   7.742348   500.516555
   7.743949   500.516342
   7.745549   500.516128
   7.747149   500.515915
   7.748750   500.515702
   7.750350   500.515489
   7.751950   500.515276
   7.753551   500.515063
   7.755151   500.514851
   7.756751   500.514638
   7.758352   500.514426
   7.759952   500.514213
   7.761552   500.514001
   7.763153   500.513789
   7.764753   500.513577
   7.766353   500.513366
   7.767954   500.513154
   7.769554   500.512943
   7.771154   500.512731
   7.772755   500.512520
   7.774355   500.512309
   7.775955   500.512098
   7.777556   500.511887
   7.779156   500.511677
   7.780756   500.511466
   7.782356   500.511256
   7.783957   500.511045
   7.785557   500.510835
   7.787157   500.510625
   7.788758   500.510415
   7.790358   500.510205
   7.791958   500.509996
   7.793559   500.509786
   7.795159   500.509577
   7.796759   500.509368
   7.798360   500.509158
   7.799960   500.508949
   7.801560   500.508741
   7.803161   500.508532
   7.804761   500.508323
   7.806361   500.508115
   7.807962   500.507906
   7.809562   500.507698
   7.811162   500.507490
   7.812763   500.507282
   7.814363   500.507074
   7.815963   500.506866
   7.817564   500.506659
   7.819164   500.506451
   7.820764   500.506244
   7.822364   500.506037
   7.823965   500.505830
   7.825565   500.505623
   7.827165   500.505416
   7.828766   500.505209
   7.830366   500.505003
   7.831966   500.504796
   7.833567   500.504590
   7.835167   500.504384
   7.836767   500.504178
   7.838368   500.503972
   7.839968   500.503766
   7.841568   500.503560
   7.843169   500.503355
   7.844769   500.503149
   7.846369   500.502944
   7.847970   500.502739
   7.849570   500.502534
   7.851170   500.502329
   7.852771   500.502124
   7.854371   500.501919
   7.855971   500.501715
   7.857572   500.501510
   7.859172   500.501306
   7.860772   500.501102
   7.862372   500.500898
   7.863973   500.500694
   7.865573   500.500490
   7.867173   500.500286
   7.868774   500.500083
   7.870374   500.499879
   7.871974   500.499676
   7.873575   500.499473
   7.875175   500.499270
   7.876775   500.499067
   7.878376   500.498864
   7.879976   500.498661
   7.881576   500.498459
   7.883177   500.498256
   7.884777   500.498054
   7.886377   500.497852
   7.887978   500.497649
   7.889578   500.497448
   7.891178   500.497246
   7.892779   500.497044
   7.894379   500.496842
   7.895979   500.496641
   7.897580   500.496440
   7.899180   500.496238
   7.900780   500.496037
   7.902380   500.495836
   7.903981   500.495635
   7.905581   500.495435
   7.907181   500.495234
   7.908782   500.495034
   7.910382   500.494833
   7.911982   500.494633
   7.913583   500.494433
   7.915183   500.494233
   7.916783   500.494033
   7.918384   500.493833
   7.919984   500.493634
   7.921584   500.493434
   7.923185   500.493235
   7.924785   500.493035
   7.926385   500.492836
   7.927986   500.492637
   7.929586   500.492438
   7.931186   500.492239
   7.932787   500.492041
   7.934387   500.491842
   7.935987   500.491644
   7.937588   500.491446
   7.939188   500.491247
   7.940788   500.491049
   7.942388   500.490851
   7.943989   500.490653
   7.945589   500.490456
   7.947189   500.490258
   7.948790   500.490061
   7.950390   500.489863
   7.951990   500.489666
   7.953591   500.489469
   7.955191   500.489272
   7.956791   500.489075
   7.958392   500.488878
   7.959992   500.488682
   7.961592   500.488485
   7.963193   500.488289
   7.964793   500.488092
   7.966393   500.487896
   7.967994   500.487700
   7.969594   500.487504
   7.971194   500.487309
   7.972795   500.487113
   7.974395   500.486917
   7.975995   500.486722
   7.977596   500.486526
   7.979196   500.486331
   7.980796   500.486136
   7.982396   500.485941
   7.983997   500.485746
   7.985597   500.485551
   7.987197   500.485357
   7.988798   500.485162
   7.990398   500.484968
   7.991998   500.484774
   7.993599   500.484579
   7.995199   500.484385
   7.996799   500.484191
   7.998400   500.483998
   8.000000   500.483804